Start time = 18:23:44.602808
End time = 18:23:54.546872
laser_energy = 6.550
channel_1_dial = 850
channel_2_dial = 850
channel_3_dial = 850
channel_4_dial = 850
NG-1-LII = 0
NG-3-15399 = 0
NG-4-LII = 0
NG-4-15399 = 0
NG-5-LII = 0
NG-5-15399 = 0
NG-9-LII = 0
NG-9-15399 = 0
NG-10-01 = 0
NG-11-15399 = 0
NG-12-15399 = 0
NG-4A-2001 = 0
NG-4B-2001 = 0
NG-5A-2001 = 0
NG-3-2001 = 0
NG-5B-2001 = 0
NG-1-2001 = 0
NG-9-2001 = 0
NG-10-2001 = 0
NG-11-2001 = 0
NG-12-2001 = 0
AND-200SN09 = 0
AND-100SN09 = 0
AND-050SN09 = 0
AND-030SN09 = 0
AND-015SN05 = 0
PMT#1Voltage = 0
PMT#2Voltage = 0
t0(sec) = 0.000000E+0
dt(sec) = 4.000000E-10
F1:INSP "
DESCRIPTOR_NAME    : WAVEDESC           
TEMPLATE_NAME      : LECROY_2_3         
COMM_TYPE          : word               
COMM_ORDER         : HIFIRST            
WAVE_DESCRIPTOR    : 346                
USER_TEXT          : 0                  
RES_DESC1          : 0                  
TRIGTIME_ARRAY     : 0                  
RIS_TIME_ARRAY     : 0                  
RES_ARRAY1         : 0                  
WAVE_ARRAY_1       : 10002              
WAVE_ARRAY_2       : 0                  
RES_ARRAY2         : 0                  
RES_ARRAY3         : 0                  
INSTRUMENT_NAME    : LECROYHDO6104      
INSTRUMENT_NUMBER  : 6308               
TRACE_LABEL        :                    
RESERVED1          : 5001               
RESERVED2          : 0                  
WAVE_ARRAY_COUNT   : 5001               
PNTS_PER_SCREEN    : 5000               
FIRST_VALID_PNT    : 0                  
LAST_VALID_PNT     : 5000               
FIRST_POINT        : 0                  
SPARSING_FACTOR    : 1                  
SEGMENT_INDEX      : 0                  
SUBARRAY_COUNT     : 1                  
SWEEPS_PER_ACQ     : 200                
POINTS_PER_PAIR    : 0                  
PAIR_OFFSET        : 0                  
VERTICAL_GAIN      : 2.6238e-006        
VERTICAL_OFFSET    : 6.5501e-002        
MAX_VALUE          : 3.0816e+004        
MIN_VALUE          : 1.3388e+004        
NOMINAL_BITS       : 16                 
NOM_SUBARRAY_COUNT : 1                  
HORIZ_INTERVAL     : 4.0000e-010        
HORIZ_OFFSET       : -2.00000000e-007   
PIXEL_OFFSET       : -2.00000000e-007   
VERTUNIT           : Unit Name = V
HORUNIT            : Unit Name = S
HORIZ_UNCERTAINTY  : 1.0000e-012        
TRIGGER_TIME       : Date = APR 17, 2024, Time = 19:23:40.493222543
ACQ_DURATION       : 9.9989e+000        
RECORD_TYPE        : single_sweep       
PROCESSING_DONE    : no_processing      
RESERVED5          : 0                  
RIS_SWEEPS         : 1                  
TIMEBASE           : 200_ns/div         
VERT_COUPLING      : DC_50_Ohms         
PROBE_ATT          : 1.0000e+000        
FIXED_VERT_GAIN    : 5_mV/div           
BANDWIDTH_LIMIT    : off                
VERTICAL_VERNIER   : 1.1600e+000        
ACQ_VERT_OFFSET    : 0.0000e+000        
WAVE_SOURCE        : UNKNOWN            
"
0.000118
0.000134
0.000131
0.000115
0.000144
0.000170
0.000155
0.000163
0.000178
0.000178
0.000160
0.000134
0.000136
0.000118
0.000136
0.000129
0.000142
0.000160
0.000160
0.000144
0.000149
0.000155
0.000126
0.000129
0.000105
0.000134
0.000123
0.000100
0.000123
0.000134
0.000129
0.000126
0.000147
0.000118
0.000149
0.000176
0.000165
0.000165
0.000194
0.000165
0.000136
0.000126
0.000152
0.000115
0.000105
0.000139
0.000136
0.000126
0.000184
0.000160
0.000113
0.000149
0.000165
0.000147
0.000144
0.000147
0.000126
0.000134
0.000149
0.000142
0.000142
0.000121
0.000142
0.000118
0.000118
0.000134
0.000110
0.000089
0.000123
0.000123
0.000115
0.000139
0.000139
0.000115
0.000144
0.000123
0.000144
0.000129
0.000129
0.000108
0.000118
0.000139
0.000152
0.000136
0.000121
0.000136
0.000134
0.000123
0.000147
0.000147
0.000155
0.000160
0.000181
0.000176
0.000160
0.000176
0.000165
0.000149
0.000160
0.000157
0.000157
0.000160
0.000134
0.000134
0.000121
0.000168
0.000149
0.000126
0.000170
0.000152
0.000121
0.000105
0.000100
0.000102
0.000108
0.000118
0.000126
0.000123
0.000157
0.000152
0.000155
0.000160
0.000191
0.000157
0.000160
0.000176
0.000163
0.000152
0.000168
0.000163
0.000168
0.000129
0.000170
0.000139
0.000134
0.000142
0.000149
0.000126
0.000142
0.000121
0.000100
0.000136
0.000147
0.000105
0.000139
0.000129
0.000178
0.000168
0.000168
0.000199
0.000181
0.000178
0.000207
0.000170
0.000181
0.000186
0.000163
0.000149
0.000139
0.000134
0.000147
0.000118
0.000118
0.000110
0.000129
0.000163
0.000142
0.000123
0.000149
0.000155
0.000155
0.000160
0.000186
0.000186
0.000163
0.000155
0.000186
0.000181
0.000178
0.000163
0.000149
0.000155
0.000168
0.000134
0.000139
0.000142
0.000147
0.000123
0.000123
0.000144
0.000139
0.000123
0.000152
0.000168
0.000155
0.000157
0.000147
0.000123
0.000129
0.000152
0.000157
0.000152
0.000157
0.000136
0.000149
0.000160
0.000155
0.000115
0.000129
0.000136
0.000108
0.000118
0.000134
0.000144
0.000129
0.000152
0.000152
0.000157
0.000181
0.000170
0.000176
0.000197
0.000186
0.000157
0.000163
0.000178
0.000165
0.000147
0.000136
0.000163
0.000152
0.000108
0.000131
0.000129
0.000102
0.000126
0.000142
0.000134
0.000136
0.000142
0.000118
0.000089
0.000136
0.000089
0.000081
0.000123
0.000123
0.000113
0.000123
0.000126
0.000163
0.000126
0.000136
0.000152
0.000126
0.000129
0.000134
0.000108
0.000118
0.000131
0.000139
0.000121
0.000155
0.000152
0.000121
0.000136
0.000163
0.000118
0.000160
0.000176
0.000178
0.000184
0.000186
0.000210
0.000144
0.000155
0.000165
0.000165
0.000144
0.000129
0.000131
0.000113
0.000129
0.000136
0.000121
0.000131
0.000115
0.000144
0.000152
0.000142
0.000134
0.000097
0.000165
0.000189
0.000155
0.000144
0.000170
0.000129
0.000139
0.000149
0.000134
0.000136
0.000139
0.000108
0.000121
0.000113
0.000097
0.000089
0.000110
0.000115
0.000126
0.000142
0.000149
0.000173
0.000160
0.000168
0.000181
0.000168
0.000178
0.000184
0.000170
0.000142
0.000157
0.000134
0.000118
0.000110
0.000113
0.000115
0.000102
0.000118
0.000134
0.000108
0.000165
0.000155
0.000160
0.000173
0.000163
0.000155
0.000144
0.000176
0.000129
0.000123
0.000147
0.000147
0.000113
0.000134
0.000155
0.000136
0.000136
0.000160
0.000160
0.000139
0.000136
0.000149
0.000152
0.000123
0.000129
0.000134
0.000115
0.000144
0.000139
0.000142
0.000157
0.000152
0.000142
0.000165
0.000155
0.000136
0.000155
0.000147
0.000170
0.000126
0.000136
0.000155
0.000134
0.000105
0.000144
0.000110
0.000097
0.000121
0.000126
0.000126
0.000152
0.000160
0.000160
0.000178
0.000176
0.000152
0.000144
0.000152
0.000136
0.000118
0.000102
0.000094
0.000063
0.000055
0.000155
0.000102
0.000131
0.000163
0.000147
0.000165
0.000160
0.000142
0.000170
0.000202
0.000212
0.000197
0.000207
0.000163
0.000168
0.000121
0.000110
0.000147
0.000121
0.000129
0.000147
0.000121
0.000110
0.000139
0.000121
0.000134
0.000144
0.000113
0.000118
0.000139
0.000110
0.000105
0.000126
0.000123
0.000170
0.000147
0.000134
0.000189
0.000202
0.000181
0.000223
0.000181
0.000131
0.000094
0.000071
0.000073
0.000094
0.000068
0.000100
0.000121
0.000147
0.000147
0.000176
0.000202
0.000176
0.000108
0.000094
0.000097
0.000084
0.000118
0.000163
0.000136
0.000142
0.000163
0.000157
0.000186
0.000215
0.000231
0.000247
0.000226
0.000189
0.000123
0.000081
0.000079
0.000097
0.000084
0.000131
0.000147
0.000121
0.000121
0.000157
0.000142
0.000134
0.000115
0.000134
0.000113
0.000142
0.000147
0.000170
0.000212
0.000170
0.000147
0.000194
0.000170
0.000173
0.000163
0.000147
0.000121
0.000100
0.000039
0.000076
0.000084
0.000052
0.000092
0.000102
0.000097
0.000097
0.000076
0.000113
0.000170
0.000223
0.000307
0.000359
0.000373
0.000352
0.000257
0.000231
0.000184
0.000076
0.000016
-0.000026
-0.000045
-0.000113
-0.000081
-0.000037
0.000039
0.000115
0.000134
0.000194
0.000262
0.000254
0.000268
0.000239
0.000207
0.000160
0.000100
0.000063
0.000052
0.000081
0.000063
0.000126
0.000110
0.000092
0.000139
0.000131
0.000163
0.000231
0.000239
0.000273
0.000268
0.000244
0.000249
0.000197
0.000144
0.000152
0.000102
0.000047
0.000034
0.000013
0.000013
0.000066
0.000031
-0.000087
-0.000234
-0.000538
-0.001029
-0.001721
-0.002582
-0.003634
-0.004938
-0.006491
-0.008202
-0.010007
-0.011634
-0.013211
-0.014714
-0.016039
-0.016979
-0.017572
-0.017889
-0.018125
-0.018372
-0.018587
-0.018566
-0.018364
-0.017994
-0.017477
-0.016960
-0.016622
-0.016556
-0.016365
-0.015963
-0.015575
-0.015250
-0.014832
-0.014420
-0.014187
-0.013775
-0.013219
-0.012626
-0.011986
-0.011458
-0.011175
-0.011044
-0.010891
-0.010632
-0.010527
-0.010403
-0.010117
-0.009989
-0.009950
-0.009829
-0.009664
-0.009590
-0.009451
-0.009233
-0.009034
-0.008834
-0.008821
-0.008895
-0.008958
-0.009207
-0.009614
-0.009860
-0.009955
-0.009889
-0.009753
-0.009580
-0.009383
-0.009383
-0.009406
-0.009435
-0.009467
-0.009364
-0.009141
-0.008963
-0.008903
-0.008918
-0.008947
-0.008882
-0.008871
-0.008740
-0.008509
-0.008415
-0.008373
-0.008223
-0.007984
-0.007819
-0.007604
-0.007402
-0.007276
-0.007231
-0.007132
-0.007045
-0.006958
-0.006785
-0.006680
-0.006654
-0.006675
-0.006617
-0.006337
-0.006197
-0.006247
-0.006182
-0.006184
-0.006108
-0.006072
-0.006121
-0.006145
-0.006116
-0.006058
-0.005930
-0.005843
-0.005841
-0.005804
-0.005738
-0.005772
-0.005746
-0.005670
-0.005610
-0.005552
-0.005652
-0.005639
-0.005544
-0.005465
-0.005400
-0.005363
-0.005311
-0.005242
-0.005145
-0.005185
-0.005158
-0.005219
-0.005308
-0.005374
-0.005360
-0.005329
-0.005290
-0.005224
-0.005221
-0.005269
-0.005321
-0.005347
-0.005211
-0.005059
-0.004907
-0.004788
-0.004733
-0.004644
-0.004542
-0.004542
-0.004523
-0.004508
-0.004542
-0.004555
-0.004508
-0.004434
-0.004282
-0.004146
-0.004056
-0.003980
-0.003957
-0.003965
-0.004070
-0.004104
-0.004146
-0.004156
-0.004243
-0.004266
-0.004287
-0.004303
-0.004264
-0.004251
-0.004230
-0.004169
-0.004146
-0.004096
-0.003967
-0.003857
-0.003794
-0.003707
-0.003684
-0.003652
-0.003582
-0.003542
-0.003453
-0.003477
-0.003558
-0.003629
-0.003744
-0.003786
-0.003757
-0.003692
-0.003663
-0.003589
-0.003498
-0.003411
-0.003306
-0.003275
-0.003290
-0.003322
-0.003393
-0.003503
-0.003532
-0.003508
-0.003505
-0.003463
-0.003351
-0.003183
-0.003044
-0.003041
-0.003004
-0.003020
-0.003091
-0.003177
-0.003298
-0.003290
-0.003340
-0.003380
-0.003421
-0.003406
-0.003385
-0.003458
-0.003500
-0.003437
-0.003303
-0.003222
-0.003112
-0.003010
-0.003020
-0.003096
-0.003138
-0.003107
-0.003012
-0.002965
-0.002941
-0.002905
-0.002996
-0.003015
-0.003067
-0.003088
-0.003083
-0.003023
-0.002954
-0.002808
-0.002674
-0.002585
-0.002532
-0.002556
-0.002687
-0.002721
-0.002747
-0.002752
-0.002718
-0.002674
-0.002600
-0.002522
-0.002477
-0.002493
-0.002564
-0.002582
-0.002595
-0.002647
-0.002676
-0.002608
-0.002585
-0.002548
-0.002498
-0.002490
-0.002466
-0.002498
-0.002524
-0.002503
-0.002461
-0.002369
-0.002333
-0.002222
-0.002215
-0.002254
-0.002320
-0.002474
-0.002579
-0.002687
-0.002802
-0.002957
-0.002983
-0.002996
-0.002954
-0.002954
-0.002873
-0.002905
-0.002926
-0.002839
-0.002697
-0.002461
-0.002230
-0.001986
-0.001831
-0.001748
-0.001732
-0.001661
-0.001687
-0.001824
-0.002039
-0.002246
-0.002422
-0.002564
-0.002674
-0.002640
-0.002553
-0.002524
-0.002498
-0.002472
-0.002411
-0.002367
-0.002445
-0.002461
-0.002464
-0.002477
-0.002506
-0.002490
-0.002451
-0.002369
-0.002288
-0.002157
-0.002094
-0.002154
-0.002125
-0.002138
-0.002288
-0.002369
-0.002445
-0.002474
-0.002514
-0.002485
-0.002445
-0.002445
-0.002456
-0.002367
-0.002359
-0.002359
-0.002380
-0.002346
-0.002338
-0.002293
-0.002183
-0.002044
-0.001915
-0.001813
-0.001761
-0.001795
-0.001876
-0.001942
-0.001999
-0.002099
-0.002175
-0.002144
-0.002152
-0.002217
-0.002215
-0.002196
-0.002152
-0.002159
-0.002133
-0.002070
-0.001963
-0.001939
-0.001929
-0.001915
-0.001913
-0.001984
-0.002036
-0.001984
-0.001915
-0.001858
-0.001923
-0.001986
-0.002036
-0.002044
-0.002020
-0.001999
-0.001952
-0.001929
-0.001965
-0.001915
-0.001873
-0.001908
-0.001887
-0.001834
-0.001816
-0.001821
-0.001915
-0.001915
-0.001986
-0.002062
-0.002036
-0.001992
-0.001999
-0.001978
-0.001936
-0.001923
-0.001871
-0.001858
-0.001884
-0.001894
-0.001894
-0.001881
-0.001837
-0.001881
-0.001902
-0.001913
-0.001918
-0.001884
-0.001813
-0.001708
-0.001632
-0.001582
-0.001619
-0.001622
-0.001692
-0.001818
-0.001900
-0.001978
-0.002075
-0.002086
-0.002086
-0.002010
-0.001936
-0.001855
-0.001740
-0.001766
-0.001782
-0.001758
-0.001677
-0.001740
-0.001784
-0.001761
-0.001724
-0.001692
-0.001656
-0.001598
-0.001603
-0.001616
-0.001666
-0.001716
-0.001748
-0.001779
-0.001829
-0.001855
-0.001779
-0.001771
-0.001779
-0.001748
-0.001703
-0.001664
-0.001587
-0.001477
-0.001417
-0.001467
-0.001464
-0.001540
-0.001608
-0.001685
-0.001724
-0.001698
-0.001629
-0.001640
-0.001616
-0.001640
-0.001640
-0.001632
-0.001643
-0.001632
-0.001593
-0.001548
-0.001498
-0.001422
-0.001372
-0.001296
-0.001301
-0.001267
-0.001278
-0.001259
-0.001270
-0.001299
-0.001354
-0.001409
-0.001443
-0.001543
-0.001666
-0.001721
-0.001763
-0.001763
-0.001748
-0.001782
-0.001779
-0.001761
-0.001740
-0.001721
-0.001661
-0.001603
-0.001553
-0.001451
-0.001409
-0.001351
-0.001364
-0.001359
-0.001399
-0.001420
-0.001406
-0.001401
-0.001385
-0.001391
-0.001441
-0.001553
-0.001590
-0.001624
-0.001624
-0.001530
-0.001425
-0.001370
-0.001315
-0.001265
-0.001275
-0.001233
-0.001212
-0.001249
-0.001246
-0.001249
-0.001262
-0.001299
-0.001341
-0.001309
-0.001278
-0.001262
-0.001267
-0.001299
-0.001372
-0.001433
-0.001454
-0.001483
-0.001480
-0.001383
-0.001362
-0.001349
-0.001288
-0.001291
-0.001296
-0.001336
-0.001351
-0.001354
-0.001362
-0.001301
-0.001270
-0.001288
-0.001283
-0.001330
-0.001391
-0.001425
-0.001459
-0.001503
-0.001527
-0.001488
-0.001462
-0.001399
-0.001333
-0.001265
-0.001204
-0.001155
-0.001139
-0.001134
-0.001102
-0.001031
-0.000981
-0.001013
-0.001029
-0.000968
-0.001005
-0.001023
-0.001050
-0.001110
-0.001199
-0.001273
-0.001317
-0.001312
-0.001307
-0.001320
-0.001294
-0.001259
-0.001249
-0.001176
-0.001176
-0.001136
-0.001073
-0.001086
-0.001141
-0.001178
-0.001204
-0.001265
-0.001291
-0.001312
-0.001296
-0.001301
-0.001354
-0.001325
-0.001304
-0.001312
-0.001328
-0.001338
-0.001288
-0.001162
-0.001068
-0.001039
-0.000966
-0.000932
-0.000926
-0.000908
-0.000939
-0.001031
-0.001092
-0.001173
-0.001215
-0.001259
-0.001299
-0.001265
-0.001244
-0.001225
-0.001197
-0.001105
-0.001076
-0.001076
-0.001089
-0.001084
-0.001089
-0.001081
-0.001107
-0.001076
-0.001073
-0.001063
-0.001005
-0.000953
-0.000895
-0.000824
-0.000845
-0.000837
-0.000890
-0.000945
-0.001013
-0.001018
-0.001039
-0.001044
-0.001097
-0.001155
-0.001157
-0.001210
-0.001223
-0.001225
-0.001267
-0.001246
-0.001199
-0.001134
-0.001097
-0.001023
-0.001021
-0.000979
-0.000997
-0.000963
-0.000911
-0.000871
-0.000900
-0.000973
-0.001050
-0.001105
-0.001136
-0.001134
-0.001149
-0.001147
-0.001157
-0.001162
-0.001168
-0.001118
-0.001126
-0.001065
-0.001036
-0.000987
-0.000955
-0.000960
-0.000908
-0.000848
-0.000808
-0.000766
-0.000790
-0.000827
-0.000887
-0.000955
-0.000981
-0.001013
-0.001018
-0.001002
-0.001050
-0.001078
-0.001063
-0.001063
-0.001002
-0.000950
-0.000913
-0.000937
-0.000958
-0.000932
-0.000921
-0.000882
-0.000879
-0.000869
-0.000840
-0.000790
-0.000756
-0.000753
-0.000824
-0.000855
-0.000945
-0.000994
-0.001005
-0.000987
-0.000966
-0.000958
-0.000926
-0.000913
-0.000926
-0.000911
-0.000947
-0.000908
-0.000913
-0.000874
-0.000866
-0.000798
-0.000800
-0.000756
-0.000743
-0.000777
-0.000816
-0.000782
-0.000816
-0.000845
-0.000895
-0.000921
-0.001005
-0.001023
-0.001042
-0.001026
-0.000987
-0.000947
-0.000924
-0.000892
-0.000821
-0.000750
-0.000753
-0.000753
-0.000724
-0.000795
-0.000863
-0.000795
-0.000766
-0.000748
-0.000827
-0.000845
-0.000837
-0.000908
-0.000955
-0.000897
-0.000884
-0.000869
-0.000855
-0.000858
-0.000861
-0.000863
-0.000858
-0.000821
-0.000787
-0.000795
-0.000840
-0.000848
-0.000897
-0.000842
-0.000779
-0.000716
-0.000672
-0.000659
-0.000656
-0.000735
-0.000840
-0.000887
-0.000953
-0.001010
-0.001057
-0.001089
-0.001092
-0.001113
-0.001078
-0.000989
-0.000911
-0.000837
-0.000806
-0.000771
-0.000716
-0.000682
-0.000706
-0.000706
-0.000748
-0.000743
-0.000769
-0.000858
-0.000871
-0.000942
-0.001071
-0.001081
-0.001034
-0.001010
-0.000979
-0.000945
-0.000834
-0.000748
-0.000732
-0.000737
-0.000706
-0.000708
-0.000701
-0.000664
-0.000698
-0.000701
-0.000722
-0.000756
-0.000813
-0.000785
-0.000748
-0.000722
-0.000727
-0.000753
-0.000758
-0.000769
-0.000816
-0.000779
-0.000821
-0.000866
-0.000876
-0.000861
-0.000811
-0.000808
-0.000808
-0.000732
-0.000698
-0.000685
-0.000685
-0.000638
-0.000653
-0.000664
-0.000706
-0.000758
-0.000758
-0.000740
-0.000756
-0.000745
-0.000737
-0.000711
-0.000771
-0.000743
-0.000703
-0.000656
-0.000661
-0.000677
-0.000651
-0.000695
-0.000680
-0.000664
-0.000674
-0.000695
-0.000743
-0.000758
-0.000711
-0.000677
-0.000682
-0.000617
-0.000596
-0.000659
-0.000740
-0.000764
-0.000795
-0.000753
-0.000777
-0.000782
-0.000832
-0.000858
-0.000895
-0.000848
-0.000845
-0.000800
-0.000737
-0.000708
-0.000714
-0.000706
-0.000677
-0.000656
-0.000703
-0.000703
-0.000732
-0.000703
-0.000680
-0.000672
-0.000659
-0.000682
-0.000729
-0.000800
-0.000855
-0.000858
-0.000879
-0.000800
-0.000777
-0.000732
-0.000695
-0.000703
-0.000701
-0.000669
-0.000632
-0.000619
-0.000588
-0.000622
-0.000674
-0.000632
-0.000640
-0.000580
-0.000556
-0.000535
-0.000543
-0.000559
-0.000611
-0.000635
-0.000685
-0.000766
-0.000774
-0.000803
-0.000855
-0.000824
-0.000803
-0.000798
-0.000758
-0.000719
-0.000680
-0.000661
-0.000695
-0.000690
-0.000687
-0.000680
-0.000627
-0.000598
-0.000585
-0.000569
-0.000564
-0.000614
-0.000656
-0.000667
-0.000724
-0.000719
-0.000737
-0.000737
-0.000745
-0.000764
-0.000735
-0.000706
-0.000701
-0.000687
-0.000677
-0.000682
-0.000672
-0.000646
-0.000677
-0.000646
-0.000638
-0.000638
-0.000619
-0.000598
-0.000619
-0.000606
-0.000577
-0.000527
-0.000514
-0.000509
-0.000533
-0.000541
-0.000580
-0.000585
-0.000569
-0.000617
-0.000667
-0.000682
-0.000706
-0.000695
-0.000701
-0.000685
-0.000687
-0.000690
-0.000753
-0.000753
-0.000693
-0.000695
-0.000588
-0.000499
-0.000441
-0.000407
-0.000441
-0.000462
-0.000496
-0.000496
-0.000496
-0.000496
-0.000525
-0.000569
-0.000611
-0.000622
-0.000664
-0.000632
-0.000664
-0.000580
-0.000543
-0.000535
-0.000522
-0.000506
-0.000556
-0.000590
-0.000609
-0.000590
-0.000554
-0.000520
-0.000564
-0.000562
-0.000585
-0.000625
-0.000646
-0.000685
-0.000719
-0.000729
-0.000743
-0.000740
-0.000732
-0.000669
-0.000611
-0.000606
-0.000604
-0.000625
-0.000643
-0.000593
-0.000580
-0.000572
-0.000525
-0.000499
-0.000512
-0.000527
-0.000538
-0.000598
-0.000646
-0.000635
-0.000677
-0.000672
-0.000632
-0.000659
-0.000687
-0.000698
-0.000701
-0.000690
-0.000708
-0.000638
-0.000593
-0.000617
-0.000601
-0.000585
-0.000651
-0.000619
-0.000648
-0.000653
-0.000601
-0.000575
-0.000590
-0.000535
-0.000527
-0.000517
-0.000506
-0.000491
-0.000488
-0.000493
-0.000564
-0.000590
-0.000596
-0.000638
-0.000619
-0.000580
-0.000575
-0.000530
-0.000496
-0.000480
-0.000475
-0.000449
-0.000478
-0.000504
-0.000488
-0.000493
-0.000517
-0.000483
-0.000496
-0.000554
-0.000598
-0.000593
-0.000569
-0.000556
-0.000506
-0.000485
-0.000509
-0.000520
-0.000525
-0.000522
-0.000475
-0.000415
-0.000446
-0.000417
-0.000388
-0.000404
-0.000386
-0.000425
-0.000457
-0.000512
-0.000546
-0.000527
-0.000530
-0.000522
-0.000517
-0.000488
-0.000514
-0.000499
-0.000483
-0.000420
-0.000388
-0.000373
-0.000396
-0.000402
-0.000443
-0.000467
-0.000527
-0.000525
-0.000522
-0.000496
-0.000527
-0.000483
-0.000509
-0.000556
-0.000564
-0.000533
-0.000562
-0.000585
-0.000601
-0.000601
-0.000619
-0.000611
-0.000583
-0.000559
-0.000512
-0.000514
-0.000512
-0.000514
-0.000517
-0.000512
-0.000535
-0.000483
-0.000480
-0.000580
-0.000606
-0.000548
-0.000572
-0.000583
-0.000543
-0.000472
-0.000443
-0.000446
-0.000407
-0.000381
-0.000360
-0.000357
-0.000407
-0.000412
-0.000454
-0.000462
-0.000493
-0.000514
-0.000522
-0.000556
-0.000585
-0.000564
-0.000488
-0.000478
-0.000485
-0.000483
-0.000527
-0.000520
-0.000525
-0.000480
-0.000483
-0.000472
-0.000478
-0.000493
-0.000475
-0.000464
-0.000501
-0.000446
-0.000415
-0.000407
-0.000404
-0.000415
-0.000375
-0.000394
-0.000375
-0.000360
-0.000362
-0.000417
-0.000493
-0.000509
-0.000562
-0.000554
-0.000527
-0.000485
-0.000496
-0.000483
-0.000501
-0.000493
-0.000483
-0.000480
-0.000483
-0.000475
-0.000506
-0.000446
-0.000402
-0.000402
-0.000402
-0.000420
-0.000436
-0.000399
-0.000464
-0.000496
-0.000538
-0.000572
-0.000590
-0.000569
-0.000567
-0.000517
-0.000483
-0.000443
-0.000430
-0.000386
-0.000402
-0.000391
-0.000417
-0.000417
-0.000396
-0.000420
-0.000412
-0.000357
-0.000320
-0.000294
-0.000302
-0.000289
-0.000354
-0.000388
-0.000441
-0.000449
-0.000454
-0.000472
-0.000457
-0.000430
-0.000420
-0.000399
-0.000407
-0.000378
-0.000365
-0.000357
-0.000336
-0.000291
-0.000294
-0.000318
-0.000357
-0.000422
-0.000396
-0.000388
-0.000404
-0.000404
-0.000375
-0.000354
-0.000333
-0.000328
-0.000336
-0.000294
-0.000349
-0.000352
-0.000370
-0.000349
-0.000354
-0.000362
-0.000354
-0.000352
-0.000378
-0.000386
-0.000386
-0.000362
-0.000381
-0.000409
-0.000467
-0.000433
-0.000425
-0.000412
-0.000470
-0.000491
-0.000538
-0.000575
-0.000559
-0.000535
-0.000520
-0.000483
-0.000428
-0.000404
-0.000394
-0.000412
-0.000386
-0.000365
-0.000344
-0.000302
-0.000310
-0.000341
-0.000381
-0.000375
-0.000375
-0.000391
-0.000409
-0.000386
-0.000378
-0.000373
-0.000388
-0.000357
-0.000365
-0.000360
-0.000365
-0.000349
-0.000320
-0.000333
-0.000323
-0.000302
-0.000310
-0.000391
-0.000415
-0.000467
-0.000504
-0.000509
-0.000499
-0.000464
-0.000451
-0.000449
-0.000425
-0.000386
-0.000365
-0.000352
-0.000331
-0.000320
-0.000333
-0.000336
-0.000354
-0.000333
-0.000341
-0.000336
-0.000352
-0.000367
-0.000357
-0.000294
-0.000304
-0.000299
-0.000286
-0.000344
-0.000323
-0.000294
-0.000297
-0.000325
-0.000346
-0.000331
-0.000325
-0.000291
-0.000273
-0.000270
-0.000323
-0.000394
-0.000412
-0.000388
-0.000443
-0.000386
-0.000386
-0.000404
-0.000433
-0.000407
-0.000412
-0.000420
-0.000396
-0.000344
-0.000362
-0.000383
-0.000391
-0.000433
-0.000467
-0.000409
-0.000378
-0.000373
-0.000381
-0.000328
-0.000294
-0.000297
-0.000304
-0.000297
-0.000273
-0.000286
-0.000315
-0.000281
-0.000260
-0.000273
-0.000273
-0.000265
-0.000302
-0.000299
-0.000354
-0.000357
-0.000373
-0.000409
-0.000409
-0.000441
-0.000441
-0.000394
-0.000375
-0.000394
-0.000428
-0.000399
-0.000404
-0.000415
-0.000422
-0.000399
-0.000370
-0.000352
-0.000278
-0.000260
-0.000252
-0.000249
-0.000226
-0.000231
-0.000273
-0.000315
-0.000304
-0.000339
-0.000388
-0.000375
-0.000333
-0.000328
-0.000315
-0.000226
-0.000205
-0.000220
-0.000213
-0.000173
-0.000192
-0.000189
-0.000202
-0.000178
-0.000178
-0.000220
-0.000234
-0.000234
-0.000268
-0.000252
-0.000304
-0.000333
-0.000341
-0.000409
-0.000420
-0.000433
-0.000480
-0.000451
-0.000470
-0.000472
-0.000402
-0.000370
-0.000357
-0.000281
-0.000255
-0.000262
-0.000278
-0.000278
-0.000268
-0.000247
-0.000270
-0.000252
-0.000239
-0.000260
-0.000265
-0.000244
-0.000265
-0.000262
-0.000304
-0.000302
-0.000297
-0.000310
-0.000323
-0.000294
-0.000320
-0.000304
-0.000289
-0.000249
-0.000239
-0.000231
-0.000239
-0.000226
-0.000268
-0.000289
-0.000276
-0.000276
-0.000291
-0.000315
-0.000323
-0.000349
-0.000336
-0.000302
-0.000307
-0.000283
-0.000260
-0.000281
-0.000333
-0.000307
-0.000323
-0.000304
-0.000318
-0.000270
-0.000252
-0.000265
-0.000304
-0.000252
-0.000252
-0.000252
-0.000262
-0.000249
-0.000286
-0.000276
-0.000281
-0.000276
-0.000239
-0.000283
-0.000283
-0.000270
-0.000304
-0.000323
-0.000339
-0.000344
-0.000310
-0.000323
-0.000304
-0.000294
-0.000299
-0.000268
-0.000244
-0.000260
-0.000244
-0.000231
-0.000260
-0.000265
-0.000255
-0.000265
-0.000241
-0.000260
-0.000215
-0.000215
-0.000215
-0.000207
-0.000228
-0.000220
-0.000260
-0.000252
-0.000262
-0.000249
-0.000260
-0.000265
-0.000255
-0.000257
-0.000265
-0.000281
-0.000226
-0.000228
-0.000202
-0.000202
-0.000213
-0.000205
-0.000215
-0.000231
-0.000215
-0.000241
-0.000226
-0.000218
-0.000213
-0.000202
-0.000241
-0.000273
-0.000325
-0.000325
-0.000381
-0.000394
-0.000362
-0.000331
-0.000273
-0.000247
-0.000244
-0.000257
-0.000270
-0.000286
-0.000241
-0.000207
-0.000218
-0.000202
-0.000184
-0.000160
-0.000152
-0.000189
-0.000207
-0.000244
-0.000325
-0.000336
-0.000367
-0.000349
-0.000378
-0.000333
-0.000310
-0.000260
-0.000205
-0.000176
-0.000192
-0.000213
-0.000231
-0.000239
-0.000213
-0.000176
-0.000181
-0.000152
-0.000126
-0.000110
-0.000110
-0.000074
-0.000063
-0.000084
-0.000129
-0.000157
-0.000181
-0.000207
-0.000220
-0.000218
-0.000226
-0.000218
-0.000244
-0.000257
-0.000234
-0.000207
-0.000207
-0.000181
-0.000155
-0.000142
-0.000199
-0.000181
-0.000197
-0.000234
-0.000286
-0.000268
-0.000265
-0.000265
-0.000213
-0.000234
-0.000231
-0.000184
-0.000213
-0.000218
-0.000231
-0.000244
-0.000265
-0.000325
-0.000320
-0.000278
-0.000281
-0.000257
-0.000244
-0.000223
-0.000210
-0.000194
-0.000184
-0.000186
-0.000202
-0.000234
-0.000249
-0.000236
-0.000215
-0.000244
-0.000210
-0.000186
-0.000218
-0.000236
-0.000194
-0.000171
-0.000215
-0.000168
-0.000150
-0.000178
-0.000199
-0.000202
-0.000205
-0.000226
-0.000268
-0.000268
-0.000299
-0.000304
-0.000312
-0.000328
-0.000278
-0.000241
-0.000247
-0.000252
-0.000257
-0.000270
-0.000262
-0.000265
-0.000249
-0.000255
-0.000247
-0.000265
-0.000281
-0.000247
-0.000239
-0.000231
-0.000228
-0.000215
-0.000231
-0.000249
-0.000231
-0.000252
-0.000260
-0.000260
-0.000239
-0.000234
-0.000223
-0.000199
-0.000189
-0.000168
-0.000199
-0.000173
-0.000157
-0.000184
-0.000178
-0.000186
-0.000176
-0.000155
-0.000131
-0.000142
-0.000126
-0.000165
-0.000215
-0.000231
-0.000215
-0.000236
-0.000255
-0.000236
-0.000199
-0.000213
-0.000194
-0.000157
-0.000157
-0.000157
-0.000163
-0.000176
-0.000197
-0.000231
-0.000226
-0.000176
-0.000189
-0.000150
-0.000160
-0.000152
-0.000155
-0.000168
-0.000160
-0.000171
-0.000176
-0.000171
-0.000218
-0.000252
-0.000339
-0.000346
-0.000320
-0.000325
-0.000281
-0.000239
-0.000244
-0.000186
-0.000189
-0.000144
-0.000176
-0.000213
-0.000223
-0.000223
-0.000265
-0.000270
-0.000244
-0.000249
-0.000241
-0.000184
-0.000171
-0.000163
-0.000155
-0.000184
-0.000160
-0.000155
-0.000139
-0.000173
-0.000131
-0.000113
-0.000102
-0.000105
-0.000092
-0.000108
-0.000118
-0.000100
-0.000095
-0.000108
-0.000129
-0.000116
-0.000126
-0.000100
-0.000121
-0.000160
-0.000150
-0.000178
-0.000178
-0.000173
-0.000184
-0.000165
-0.000197
-0.000202
-0.000194
-0.000194
-0.000213
-0.000223
-0.000181
-0.000186
-0.000184
-0.000147
-0.000152
-0.000139
-0.000142
-0.000126
-0.000157
-0.000118
-0.000136
-0.000168
-0.000152
-0.000173
-0.000173
-0.000207
-0.000210
-0.000192
-0.000215
-0.000194
-0.000184
-0.000215
-0.000270
-0.000268
-0.000202
-0.000202
-0.000207
-0.000147
-0.000147
-0.000147
-0.000178
-0.000194
-0.000218
-0.000199
-0.000205
-0.000234
-0.000163
-0.000155
-0.000178
-0.000150
-0.000131
-0.000139
-0.000150
-0.000116
-0.000105
-0.000089
-0.000116
-0.000110
-0.000152
-0.000184
-0.000197
-0.000189
-0.000239
-0.000244
-0.000241
-0.000205
-0.000176
-0.000142
-0.000142
-0.000136
-0.000152
-0.000147
-0.000160
-0.000147
-0.000129
-0.000150
-0.000129
-0.000131
-0.000134
-0.000142
-0.000160
-0.000192
-0.000226
-0.000228
-0.000223
-0.000281
-0.000281
-0.000283
-0.000307
-0.000283
-0.000244
-0.000207
-0.000223
-0.000186
-0.000207
-0.000239
-0.000199
-0.000234
-0.000226
-0.000215
-0.000199
-0.000181
-0.000131
-0.000116
-0.000139
-0.000129
-0.000152
-0.000171
-0.000178
-0.000189
-0.000207
-0.000207
-0.000234
-0.000244
-0.000226
-0.000231
-0.000207
-0.000157
-0.000126
-0.000087
-0.000081
-0.000102
-0.000126
-0.000131
-0.000144
-0.000150
-0.000150
-0.000121
-0.000142
-0.000136
-0.000108
-0.000113
-0.000144
-0.000139
-0.000163
-0.000189
-0.000165
-0.000139
-0.000123
-0.000110
-0.000147
-0.000171
-0.000184
-0.000157
-0.000181
-0.000147
-0.000160
-0.000210
-0.000273
-0.000255
-0.000249
-0.000220
-0.000213
-0.000171
-0.000150
-0.000116
-0.000144
-0.000110
-0.000123
-0.000126
-0.000144
-0.000157
-0.000192
-0.000168
-0.000157
-0.000176
-0.000160
-0.000123
-0.000155
-0.000144
-0.000142
-0.000126
-0.000118
-0.000155
-0.000131
-0.000116
-0.000181
-0.000121
-0.000105
-0.000076
-0.000081
-0.000084
-0.000081
-0.000084
-0.000097
-0.000116
-0.000136
-0.000160
-0.000168
-0.000199
-0.000186
-0.000189
-0.000184
-0.000192
-0.000176
-0.000139
-0.000157
-0.000108
-0.000131
-0.000139
-0.000173
-0.000186
-0.000171
-0.000197
-0.000160
-0.000152
-0.000121
-0.000105
-0.000116
-0.000102
-0.000087
-0.000097
-0.000118
-0.000079
-0.000095
-0.000134
-0.000121
-0.000081
-0.000068
-0.000063
-0.000053
-0.000074
-0.000089
-0.000136
-0.000178
-0.000178
-0.000207
-0.000186
-0.000168
-0.000197
-0.000184
-0.000210
-0.000184
-0.000165
-0.000142
-0.000079
-0.000139
-0.000147
-0.000147
-0.000136
-0.000192
-0.000223
-0.000223
-0.000181
-0.000147
-0.000171
-0.000152
-0.000097
-0.000118
-0.000095
-0.000110
-0.000121
-0.000184
-0.000247
-0.000262
-0.000286
-0.000312
-0.000260
-0.000223
-0.000178
-0.000171
-0.000147
-0.000163
-0.000136
-0.000155
-0.000165
-0.000116
-0.000108
-0.000089
-0.000116
-0.000071
-0.000079
-0.000113
-0.000123
-0.000136
-0.000123
-0.000150
-0.000097
-0.000079
-0.000074
-0.000071
-0.000050
-0.000066
-0.000089
-0.000068
-0.000110
-0.000118
-0.000118
-0.000139
-0.000139
-0.000121
-0.000100
-0.000126
-0.000092
-0.000121
-0.000123
-0.000134
-0.000118
-0.000131
-0.000126
-0.000116
-0.000136
-0.000155
-0.000173
-0.000178
-0.000147
-0.000136
-0.000095
-0.000108
-0.000105
-0.000105
-0.000092
-0.000097
-0.000066
-0.000029
-0.000037
-0.000063
-0.000011
-0.000018
-0.000005
-0.000024
-0.000013
-0.000053
-0.000066
-0.000110
-0.000121
-0.000118
-0.000110
-0.000100
-0.000089
-0.000076
-0.000042
-0.000032
-0.000016
-0.000011
-0.000003
-0.000055
-0.000060
-0.000068
-0.000126
-0.000113
-0.000144
-0.000165
-0.000168
-0.000147
-0.000126
-0.000074
-0.000050
-0.000037
0.000005
0.000008
0.000021
-0.000016
-0.000063
-0.000076
-0.000092
-0.000126
-0.000129
-0.000116
-0.000079
-0.000058
-0.000016
-0.000092
-0.000113
-0.000147
-0.000165
-0.000194
-0.000178
-0.000147
-0.000181
-0.000131
-0.000108
-0.000095
-0.000042
-0.000084
-0.000084
-0.000100
-0.000108
-0.000081
-0.000116
-0.000105
-0.000071
-0.000089
-0.000079
-0.000058
-0.000045
-0.000063
-0.000076
-0.000087
-0.000113
-0.000116
-0.000139
-0.000121
-0.000113
-0.000079
-0.000076
-0.000079
-0.000034
-0.000047
-0.000053
-0.000097
-0.000089
-0.000095
-0.000126
-0.000087
-0.000097
-0.000110
-0.000134
-0.000163
-0.000152
-0.000129
-0.000118
-0.000121
-0.000110
-0.000108
-0.000097
-0.000118
-0.000097
-0.000071
-0.000100
-0.000068
-0.000032
-0.000076
-0.000084
-0.000100
-0.000068
-0.000079
-0.000045
-0.000066
-0.000066
-0.000016
-0.000024
-0.000029
0.000013
-0.000000
0.000047
0.000016
-0.000003
0.000008
-0.000021
-0.000018
-0.000013
-0.000058
-0.000087
-0.000097
-0.000157
-0.000157
-0.000168
-0.000155
-0.000100
-0.000123
-0.000123
-0.000084
-0.000081
-0.000092
-0.000089
-0.000110
-0.000095
-0.000092
-0.000092
-0.000118
-0.000084
-0.000081
-0.000089
-0.000068
-0.000042
-0.000045
-0.000005
-0.000047
-0.000071
-0.000087
-0.000060
-0.000042
-0.000034
-0.000068
-0.000055
-0.000126
-0.000113
-0.000118
-0.000113
-0.000113
-0.000076
-0.000113
-0.000092
-0.000045
-0.000053
-0.000079
-0.000068
-0.000081
-0.000063
-0.000060
-0.000024
-0.000026
-0.000042
-0.000037
-0.000039
-0.000102
-0.000097
-0.000063
-0.000045
-0.000039
-0.000013
-0.000081
-0.000134
-0.000160
-0.000213
-0.000218
-0.000220
-0.000176
-0.000134
-0.000131
-0.000068
-0.000032
-0.000000
-0.000029
-0.000037
-0.000050
-0.000039
-0.000016
-0.000042
-0.000047
-0.000055
-0.000081
-0.000071
-0.000029
-0.000039
-0.000050
-0.000045
-0.000076
-0.000079
-0.000068
-0.000071
-0.000032
-0.000045
-0.000037
-0.000003
-0.000050
-0.000016
0.000018
0.000005
-0.000005
-0.000005
-0.000032
-0.000066
-0.000058
-0.000087
-0.000087
-0.000084
-0.000113
-0.000084
-0.000081
-0.000087
-0.000089
-0.000084
-0.000118
-0.000068
-0.000087
-0.000116
-0.000118
-0.000139
-0.000116
-0.000063
-0.000034
-0.000037
-0.000024
-0.000024
-0.000047
-0.000074
-0.000092
-0.000087
-0.000084
-0.000071
-0.000084
-0.000074
-0.000089
-0.000100
-0.000134
-0.000100
-0.000074
-0.000058
-0.000055
-0.000053
-0.000042
-0.000042
-0.000055
-0.000039
-0.000053
-0.000039
-0.000029
-0.000016
-0.000026
-0.000037
-0.000034
-0.000060
-0.000066
-0.000050
-0.000063
-0.000087
-0.000060
-0.000097
-0.000157
-0.000136
-0.000121
-0.000118
-0.000087
-0.000089
-0.000100
-0.000097
-0.000113
-0.000110
-0.000113
-0.000139
-0.000152
-0.000121
-0.000108
-0.000081
-0.000060
-0.000050
-0.000045
-0.000037
-0.000047
-0.000016
-0.000005
-0.000021
-0.000047
-0.000053
-0.000050
-0.000058
-0.000079
-0.000053
-0.000024
-0.000005
-0.000000
-0.000034
-0.000005
-0.000042
-0.000089
-0.000100
-0.000060
-0.000084
-0.000126
-0.000089
-0.000060
-0.000047
-0.000055
-0.000047
-0.000034
-0.000029
-0.000045
0.000018
0.000005
0.000029
0.000021
0.000042
0.000010
-0.000003
-0.000021
-0.000032
-0.000016
-0.000013
-0.000034
-0.000018
-0.000029
-0.000074
-0.000071
-0.000081
-0.000095
-0.000068
-0.000026
-0.000016
-0.000021
-0.000032
-0.000026
-0.000026
-0.000053
-0.000053
-0.000055
-0.000084
-0.000084
-0.000079
-0.000100
-0.000058
-0.000066
-0.000066
-0.000071
-0.000105
-0.000081
-0.000063
-0.000105
-0.000074
-0.000063
-0.000050
-0.000037
-0.000037
-0.000021
-0.000029
-0.000076
-0.000055
-0.000045
-0.000063
-0.000055
-0.000034
-0.000005
-0.000045
-0.000055
-0.000008
-0.000024
-0.000003
0.000021
0.000039
0.000066
0.000055
0.000005
0.000016
-0.000042
-0.000018
-0.000039
-0.000039
-0.000003
-0.000013
-0.000032
-0.000016
-0.000039
-0.000050
-0.000047
-0.000058
-0.000029
-0.000000
-0.000016
0.000013
-0.000026
-0.000045
-0.000076
-0.000121
-0.000136
-0.000123
-0.000136
-0.000144
-0.000081
-0.000045
-0.000063
-0.000018
0.000010
0.000018
0.000005
0.000013
0.000013
0.000013
-0.000008
-0.000011
-0.000016
-0.000050
-0.000029
-0.000055
-0.000050
-0.000042
-0.000079
-0.000097
-0.000105
-0.000081
-0.000055
-0.000042
-0.000068
-0.000092
-0.000076
-0.000089
-0.000084
-0.000060
-0.000032
-0.000008
0.000013
-0.000011
-0.000024
-0.000037
-0.000045
-0.000024
-0.000060
-0.000066
-0.000039
-0.000034
-0.000071
-0.000066
-0.000058
-0.000066
-0.000053
-0.000045
-0.000058
-0.000034
-0.000039
-0.000003
0.000003
0.000021
0.000003
0.000052
0.000071
0.000034
-0.000011
-0.000074
-0.000089
-0.000089
-0.000105
-0.000102
-0.000066
-0.000053
-0.000047
-0.000029
-0.000032
-0.000034
-0.000024
0.000010
0.000016
0.000029
0.000026
0.000031
0.000037
0.000045
0.000026
0.000034
0.000045
0.000034
0.000029
0.000024
0.000026
0.000010
-0.000024
-0.000032
-0.000018
0.000013
-0.000053
-0.000018
-0.000021
-0.000024
-0.000042
-0.000018
-0.000016
-0.000008
-0.000011
-0.000037
-0.000008
-0.000026
-0.000045
-0.000042
-0.000042
-0.000005
-0.000013
0.000024
0.000018
0.000016
-0.000011
0.000003
-0.000018
-0.000055
-0.000045
-0.000087
-0.000092
-0.000071
-0.000079
-0.000037
-0.000074
-0.000050
-0.000079
-0.000055
-0.000024
-0.000021
-0.000039
-0.000000
-0.000026
-0.000024
-0.000021
-0.000058
-0.000050
-0.000045
-0.000045
-0.000039
-0.000050
-0.000018
-0.000024
-0.000047
-0.000042
-0.000016
-0.000032
-0.000032
0.000003
-0.000011
-0.000005
0.000018
0.000013
0.000045
0.000010
0.000010
0.000008
-0.000000
-0.000008
0.000003
0.000003
0.000018
-0.000008
-0.000032
-0.000034
-0.000008
-0.000029
-0.000045
-0.000060
-0.000037
-0.000084
-0.000053
-0.000047
-0.000042
-0.000074
-0.000047
-0.000034
-0.000024
-0.000016
0.000013
-0.000000
0.000005
-0.000005
-0.000042
-0.000026
-0.000016
-0.000016
-0.000011
-0.000032
-0.000011
-0.000042
-0.000032
0.000003
0.000039
0.000042
0.000039
0.000050
0.000063
0.000045
0.000024
0.000018
0.000029
0.000016
0.000026
0.000034
0.000018
0.000068
0.000026
0.000063
0.000058
0.000034
0.000052
0.000016
0.000029
0.000029
0.000031
0.000042
0.000058
0.000052
0.000060
0.000058
0.000047
0.000024
0.000031
0.000018
0.000031
0.000018
0.000024
0.000005
0.000010
-0.000021
-0.000018
-0.000000
0.000018
0.000008
0.000042
0.000026
-0.000005
-0.000032
-0.000050
-0.000058
-0.000084
-0.000097
-0.000071
-0.000076
-0.000060
-0.000071
-0.000047
-0.000037
-0.000011
-0.000011
-0.000003
0.000013
0.000045
0.000021
0.000029
0.000026
0.000018
0.000013
0.000031
0.000016
-0.000016
-0.000011
0.000016
0.000042
0.000029
0.000034
0.000063
0.000047
0.000005
-0.000018
-0.000016
-0.000034
-0.000039
-0.000024
0.000010
0.000010
-0.000008
-0.000034
-0.000005
-0.000047
-0.000050
-0.000068
-0.000055
-0.000011
0.000029
0.000050
0.000063
0.000029
-0.000026
-0.000071
-0.000058
-0.000055
-0.000047
-0.000058
0.000005
0.000018
0.000060
-0.000005
0.000034
0.000021
0.000026
-0.000003
-0.000011
0.000024
0.000050
0.000026
0.000037
0.000021
-0.000005
-0.000018
-0.000013
0.000008
0.000050
0.000058
0.000079
0.000060
0.000037
0.000013
-0.000005
-0.000008
-0.000060
-0.000039
-0.000032
-0.000008
0.000010
0.000034
0.000031
-0.000013
0.000010
-0.000047
-0.000039
-0.000050
-0.000042
-0.000039
-0.000024
-0.000032
0.000013
-0.000000
-0.000018
-0.000058
-0.000053
-0.000029
-0.000016
0.000021
0.000016
0.000026
0.000060
0.000037
0.000037
0.000018
0.000039
0.000003
-0.000011
-0.000045
-0.000024
-0.000000
-0.000005
-0.000055
-0.000055
-0.000068
-0.000053
-0.000055
-0.000037
0.000008
-0.000003
0.000024
0.000050
0.000050
0.000026
0.000031
0.000026
0.000021
0.000008
0.000029
0.000076
0.000055
0.000087
0.000071
0.000037
0.000055
0.000039
-0.000013
0.000031
0.000026
0.000052
0.000050
0.000026
0.000021
0.000021
-0.000000
0.000050
0.000055
0.000073
0.000071
0.000058
0.000045
0.000029
0.000016
-0.000008
0.000010
0.000003
-0.000003
0.000005
0.000018
-0.000005
0.000016
-0.000018
0.000024
0.000034
0.000024
0.000055
0.000055
0.000076
0.000079
0.000052
0.000016
0.000050
0.000037
0.000037
0.000060
0.000100
0.000073
0.000097
0.000066
0.000079
0.000073
0.000060
0.000066
0.000066
0.000037
0.000031
0.000058
0.000068
0.000066
0.000105
0.000092
0.000071
0.000047
0.000037
0.000021
0.000047
0.000021
-0.000008
0.000005
-0.000013
-0.000032
-0.000039
-0.000011
-0.000050
-0.000060
-0.000045
-0.000042
0.000016
0.000008
0.000042
0.000026
0.000026
0.000016
0.000045
0.000031
0.000089
0.000055
0.000047
0.000063
0.000029
0.000047
0.000079
0.000087
0.000102
0.000039
0.000050
0.000066
0.000047
0.000026
0.000071
0.000050
0.000024
0.000010
0.000018
0.000003
-0.000000
-0.000045
-0.000066
-0.000037
-0.000024
-0.000016
-0.000013
0.000013
0.000026
0.000005
0.000039
0.000034
0.000005
-0.000018
-0.000016
-0.000013
-0.000026
-0.000032
0.000029
0.000021
0.000055
0.000013
0.000024
-0.000021
0.000013
-0.000024
-0.000034
-0.000032
-0.000021
-0.000021
0.000005
0.000045
0.000060
0.000052
0.000045
0.000047
0.000063
0.000034
0.000034
0.000005
-0.000029
-0.000021
-0.000011
-0.000024
0.000026
0.000013
0.000042
0.000024
0.000031
-0.000032
-0.000032
0.000005
0.000003
0.000005
-0.000008
-0.000037
0.000010
-0.000008
0.000016
0.000005
0.000042
0.000050
0.000034
-0.000000
0.000026
0.000008
0.000029
0.000058
0.000060
0.000047
0.000094
0.000079
0.000089
0.000071
0.000055
0.000055
0.000031
0.000052
0.000066
0.000073
0.000084
0.000066
0.000071
0.000029
0.000026
-0.000053
-0.000100
-0.000092
-0.000084
-0.000074
-0.000032
-0.000016
-0.000003
-0.000011
0.000021
0.000029
-0.000045
-0.000021
-0.000003
-0.000024
-0.000011
0.000018
0.000010
0.000021
0.000034
-0.000005
-0.000000
-0.000000
-0.000003
-0.000029
-0.000011
-0.000011
0.000031
0.000010
0.000018
0.000026
0.000052
0.000029
0.000063
0.000058
0.000084
0.000102
0.000089
0.000081
0.000094
0.000058
0.000071
0.000089
0.000089
0.000076
0.000084
0.000084
0.000097
0.000094
0.000045
0.000047
0.000026
0.000031
0.000039
0.000024
0.000076
0.000071
0.000060
0.000047
0.000058
0.000050
0.000013
0.000005
0.000010
0.000008
0.000034
0.000047
0.000063
0.000073
0.000063
0.000052
0.000026
0.000005
0.000021
-0.000024
-0.000034
-0.000047
-0.000047
-0.000076
-0.000039
-0.000074
-0.000084
-0.000074
-0.000060
-0.000055
-0.000003
0.000008
0.000008
0.000034
0.000063
0.000092
0.000084
0.000087
0.000066
0.000039
0.000042
0.000042
0.000037
0.000026
0.000024
0.000018
0.000010
0.000047
0.000010
-0.000008
0.000013
0.000042
0.000050
0.000076
0.000079
0.000071
0.000066
0.000045
0.000076
0.000058
0.000045
0.000047
0.000037
0.000045
0.000052
0.000055
0.000024
0.000034
0.000026
-0.000018
-0.000024
-0.000018
-0.000037
-0.000032
-0.000021
-0.000034
-0.000029
-0.000029
-0.000026
-0.000000
0.000026
0.000042
0.000055
0.000052
0.000105
0.000121
0.000100
0.000113
0.000105
0.000076
0.000073
0.000060
0.000079
0.000042
0.000013
0.000024
-0.000011
0.000008
0.000026
0.000003
0.000008
0.000050
0.000005
0.000026
0.000042
0.000026
0.000018
0.000029
-0.000003
-0.000032
-0.000037
-0.000005
0.000003
-0.000039
-0.000003
-0.000016
-0.000024
-0.000016
-0.000003
0.000029
0.000055
0.000060
0.000073
0.000087
0.000129
0.000073
0.000081
0.000076
0.000079
0.000060
0.000068
0.000092
0.000113
0.000055
0.000071
0.000050
0.000042
0.000016
0.000034
0.000010
0.000045
0.000052
0.000026
0.000029
0.000076
0.000045
0.000105
0.000087
0.000121
0.000092
0.000089
0.000094
0.000084
0.000068
0.000092
0.000073
0.000039
0.000045
0.000063
0.000042
0.000034
0.000031
0.000034
0.000047
0.000055
0.000042
0.000024
0.000003
0.000013
0.000010
0.000024
0.000047
0.000042
0.000042
0.000071
0.000087
0.000055
0.000060
0.000081
0.000042
0.000026
0.000045
0.000034
0.000029
0.000071
0.000073
0.000045
0.000047
0.000031
-0.000008
0.000018
0.000013
0.000021
-0.000005
-0.000016
-0.000000
0.000013
-0.000005
0.000021
0.000034
0.000066
0.000066
0.000084
0.000102
0.000034
0.000047
0.000024
-0.000016
0.000003
-0.000021
-0.000016
-0.000003
0.000005
0.000026
0.000045
0.000066
0.000045
0.000045
0.000060
0.000084
0.000100
0.000105
0.000100
0.000115
0.000100
0.000076
0.000092
0.000071
0.000073
0.000052
0.000063
0.000047
0.000068
0.000039
0.000087
0.000087
0.000097
0.000066
0.000076
0.000058
0.000055
0.000047
0.000089
0.000034
0.000052
0.000050
0.000055
0.000081
0.000094
0.000081
0.000068
0.000081
0.000063
0.000050
0.000047
0.000063
0.000016
0.000031
0.000045
0.000039
0.000018
0.000045
0.000066
0.000055
0.000060
0.000052
0.000042
0.000079
0.000092
0.000042
0.000047
0.000047
0.000097
0.000079
0.000066
0.000068
0.000047
0.000024
0.000003
-0.000008
0.000003
-0.000016
-0.000008
0.000016
0.000045
0.000024
0.000016
0.000042
0.000037
0.000058
0.000066
0.000076
0.000087
0.000060
0.000081
0.000068
0.000055
0.000037
0.000024
0.000029
0.000055
0.000068
0.000055
0.000058
0.000079
0.000063
0.000079
0.000097
0.000068
0.000066
0.000081
0.000063
0.000094
0.000071
0.000084
0.000089
0.000060
0.000037
0.000034
0.000018
0.000039
0.000026
0.000050
0.000058
0.000039
0.000039
0.000029
0.000024
-0.000003
-0.000026
-0.000000
0.000018
0.000018
0.000005
0.000029
-0.000005
-0.000026
-0.000039
-0.000013
0.000026
0.000021
0.000026
0.000052
0.000031
0.000024
0.000055
0.000089
0.000084
0.000076
0.000087
0.000073
0.000097
0.000097
0.000079
0.000094
0.000081
0.000068
0.000045
0.000045
0.000045
0.000021
0.000042
0.000071
0.000079
0.000052
0.000087
0.000084
0.000084
0.000092
0.000063
0.000071
0.000045
0.000094
0.000084
0.000066
0.000097
0.000039
0.000034
0.000052
0.000052
0.000073
0.000073
0.000071
0.000047
0.000097
0.000052
0.000052
0.000055
0.000037
0.000026
0.000018
0.000031
0.000037
0.000010
-0.000016
-0.000016
0.000010
-0.000011
0.000016
0.000042
0.000039
0.000034
0.000063
0.000052
0.000063
0.000063
0.000097
0.000131
0.000110
0.000131
0.000100
0.000081
0.000108
0.000118
0.000087
0.000097
0.000097
0.000052
0.000026
0.000026
0.000005
0.000008
0.000024
0.000024
0.000024
0.000045
0.000063
0.000087
0.000100
0.000097
0.000131
0.000108
0.000123
0.000118
0.000136
0.000157
0.000115
0.000105
0.000115
0.000089
0.000063
0.000052
0.000003
-0.000005
-0.000021
0.000018
0.000039
0.000055
0.000055
0.000100
0.000087
0.000105
0.000084
0.000039
0.000073
0.000045
0.000016
-0.000016
0.000005
0.000021
0.000037
0.000024
0.000024
0.000055
0.000018
0.000013
0.000063
0.000045
0.000052
0.000050
0.000045
0.000071
0.000097
0.000073
0.000089
0.000060
0.000042
0.000016
0.000026
0.000031
0.000076
0.000060
0.000105
0.000102
0.000092
0.000079
0.000060
0.000031
0.000010
-0.000013
-0.000032
-0.000016
-0.000011
0.000016
0.000042
0.000039
0.000076
0.000055
0.000063
0.000071
0.000105
0.000097
0.000105
0.000110
0.000102
0.000084
0.000108
0.000068
0.000071
0.000081
0.000073
0.000052
0.000037
0.000045
0.000039
0.000016
0.000026
0.000010
0.000045
0.000029
0.000018
0.000018
0.000055
0.000068
0.000089
0.000092
0.000097
0.000115
0.000123
0.000092
0.000115
0.000097
0.000087
0.000081
0.000058
0.000047
0.000050
0.000045
0.000097
0.000066
0.000081
0.000031
0.000031
0.000013
-0.000045
-0.000039
-0.000034
-0.000018
-0.000005
0.000021
0.000047
0.000063
0.000081
0.000071
0.000071
0.000081
0.000073
0.000063
0.000068
0.000068
0.000060
0.000052
0.000081
0.000081
0.000063
0.000042
0.000073
0.000058
0.000068
0.000031
0.000058
0.000042
0.000026
0.000034
0.000031
0.000055
0.000079
0.000073
0.000097
0.000097
0.000094
0.000097
0.000081
0.000094
0.000076
0.000079
0.000102
0.000105
0.000092
0.000076
0.000094
0.000081
0.000066
0.000063
0.000031
0.000050
0.000037
0.000052
0.000071
0.000076
0.000105
0.000089
0.000092
0.000079
0.000110
0.000081
0.000115
0.000118
0.000102
0.000097
0.000058
0.000037
0.000058
0.000058
0.000021
0.000029
0.000052
0.000047
0.000071
0.000084
0.000087
0.000071
0.000066
0.000066
0.000087
0.000052
0.000073
0.000071
0.000068
0.000045
0.000047
0.000042
0.000018
0.000010
0.000055
0.000071
0.000079
0.000034
0.000079
0.000042
0.000060
0.000021
0.000029
0.000055
0.000039
0.000021
0.000010
0.000039
0.000031
0.000024
0.000063
0.000052
0.000042
0.000052
0.000052
0.000066
0.000042
0.000031
0.000045
0.000047
0.000066
0.000055
0.000052
0.000084
0.000089
0.000089
0.000089
0.000118
0.000118
0.000105
0.000113
0.000129
0.000113
0.000081
0.000079
0.000071
0.000060
0.000079
0.000066
0.000068
0.000060
0.000060
0.000084
0.000097
0.000118
0.000071
0.000084
0.000115
0.000081
0.000084
0.000118
0.000087
0.000123
0.000089
0.000092
0.000092
0.000071
0.000076
0.000058
0.000071
0.000089
0.000087
0.000094
0.000097
0.000129
0.000139
0.000113
0.000134
0.000142
0.000110
0.000152
0.000147
0.000121
0.000105
0.000092
0.000073
0.000063
0.000029
0.000031
0.000008
0.000042
0.000058
0.000066
0.000063
0.000092
0.000063
0.000047
0.000050
0.000058
0.000024
0.000050
0.000042
0.000058
0.000018
0.000071
0.000073
0.000050
0.000068
0.000060
0.000016
0.000024
0.000042
0.000060
0.000089
0.000097
0.000079
0.000066
0.000055
0.000066
0.000031
0.000047
0.000045
0.000073
0.000084
0.000092
0.000131
0.000129
0.000118
0.000144
0.000102
0.000134
0.000121
0.000087
0.000092
0.000092
0.000066
0.000060
0.000079
0.000079
0.000066
0.000060
0.000081
0.000052
0.000026
0.000029
0.000024
0.000008
-0.000018
0.000024
0.000018
0.000037
0.000058
0.000039
0.000031
0.000094
0.000079
0.000076
0.000097
0.000094
0.000097
0.000084
0.000113
0.000100
0.000076
0.000105
0.000084
0.000092
0.000110
0.000113
0.000081
0.000115
0.000092
0.000097
0.000081
0.000105
0.000123
0.000115
0.000142
0.000131
0.000121
0.000118
0.000118
0.000097
0.000089
0.000113
0.000092
0.000123
0.000105
0.000102
0.000118
0.000113
0.000092
0.000105
0.000081
0.000063
0.000076
0.000050
0.000081
0.000115
0.000097
0.000129
0.000123
0.000126
0.000118
0.000129
0.000121
0.000121
0.000097
0.000134
0.000108
0.000089
0.000089
0.000102
0.000068
0.000087
0.000039
0.000037
0.000037
0.000068
0.000050
0.000084
0.000102
0.000071
0.000050
0.000068
0.000097
0.000097
0.000087
0.000108
0.000081
0.000081
0.000084
0.000084
0.000084
0.000123
0.000102
0.000071
0.000097
0.000113
0.000081
0.000110
0.000087
0.000087
0.000058
0.000058
0.000058
0.000081
0.000063
0.000079
0.000100
0.000084
0.000087
0.000076
0.000110
0.000121
0.000081
0.000094
0.000134
0.000084
0.000084
0.000097
0.000081
0.000066
0.000058
0.000060
0.000071
0.000084
0.000076
0.000121
0.000110
0.000071
0.000092
0.000071
0.000092
0.000094
0.000084
0.000073
0.000084
0.000081
0.000076
0.000100
0.000105
0.000092
0.000071
0.000129
0.000110
0.000097
0.000118
0.000121
0.000089
0.000079
0.000094
0.000092
0.000100
0.000126
0.000108
0.000084
0.000110
0.000089
0.000092
0.000081
0.000071
0.000076
0.000068
0.000058
0.000050
0.000024
0.000066
0.000092
0.000068
0.000079
0.000066
0.000073
0.000092
0.000087
0.000105
0.000108
0.000092
0.000102
0.000071
0.000076
0.000102
0.000063
0.000060
0.000084
0.000081
0.000087
0.000102
0.000147
0.000123
0.000113
0.000123
0.000129
0.000121
0.000176
0.000126
0.000092
0.000108
0.000089
0.000071
0.000084
0.000123
0.000110
0.000087
0.000092
0.000108
0.000071
0.000084
0.000079
0.000084
0.000089
0.000105
0.000110
0.000115
0.000139
0.000131
0.000097
0.000089
0.000118
0.000068
0.000092
0.000110
0.000108
0.000089
0.000108
0.000105
0.000076
0.000060
0.000087
0.000063
0.000045
0.000063
0.000045
0.000079
0.000092
0.000073
0.000087
0.000071
0.000102
0.000089
0.000105
0.000129
0.000126
0.000092
0.000123
0.000152
0.000113
0.000121
0.000121
0.000092
0.000129
0.000115
0.000108
0.000108
0.000081
0.000066
0.000047
0.000071
0.000105
0.000055
0.000071
0.000121
0.000123
0.000110
0.000134
0.000165
0.000144
0.000129
0.000165
0.000126
0.000105
0.000094
0.000089
0.000073
0.000087
0.000079
0.000068
0.000047
0.000087
0.000089
0.000097
0.000126
0.000121
0.000060
0.000100
0.000108
0.000050
0.000052
0.000066
0.000076
0.000076
0.000105
0.000108
0.000113
0.000089
0.000079
0.000087
0.000079
0.000094
0.000079
0.000097
0.000097
0.000071
0.000026
0.000055
0.000073
0.000081
0.000094
0.000121
0.000102
0.000084
0.000092
0.000079
0.000071
0.000063
0.000081
0.000087
0.000097
0.000115
0.000100
0.000063
0.000115
0.000115
0.000079
0.000089
0.000071
0.000052
0.000021
0.000047
0.000031
0.000066
0.000073
0.000063
0.000076
0.000108
0.000089
0.000100
0.000131
0.000134
0.000110
0.000105
0.000121
0.000131
0.000081
0.000126
0.000118
0.000108
0.000081
0.000081
0.000092
0.000100
0.000084
0.000092
0.000071
0.000079
0.000100
0.000115
0.000066
0.000094
0.000102
0.000113
0.000113
0.000126
0.000087
0.000118
0.000113
0.000094
0.000079
0.000094
0.000123
0.000121
0.000097
0.000129
0.000089
0.000102
0.000060
0.000055
0.000100
0.000076
0.000073
0.000058
0.000089
0.000097
0.000068
0.000079
0.000081
0.000118
0.000100
0.000097
0.000115
0.000110
0.000100
0.000087
0.000105
0.000076
0.000092
0.000081
0.000076
0.000094
0.000079
0.000045
0.000071
0.000097
0.000060
0.000076
0.000076
0.000087
0.000071
0.000100
0.000129
0.000123
0.000115
0.000144
0.000142
0.000131
0.000123
0.000097
0.000102
0.000115
0.000094
0.000063
0.000060
0.000060
0.000024
0.000045
0.000073
0.000037
0.000063
0.000102
0.000102
0.000129
0.000108
0.000079
0.000081
0.000079
0.000100
0.000094
0.000050
0.000076
0.000097
0.000039
0.000092
0.000110
0.000097
0.000089
0.000123
0.000084
0.000097
0.000131
0.000100
0.000144
0.000149
0.000152
0.000139
0.000123
0.000102
0.000126
0.000123
0.000105
0.000089
0.000113
0.000123
0.000178
0.000118
0.000139
0.000136
0.000105
0.000102
0.000142
0.000110
0.000089
0.000073
0.000055
0.000063
0.000045
0.000071
0.000115
0.000113
0.000129
0.000147
0.000097
t0(sec) = 0.000000E+0
dt(sec) = 4.000000E-10
F2:INSP "
DESCRIPTOR_NAME    : WAVEDESC           
TEMPLATE_NAME      : LECROY_2_3         
COMM_TYPE          : word               
COMM_ORDER         : HIFIRST            
WAVE_DESCRIPTOR    : 346                
USER_TEXT          : 0                  
RES_DESC1          : 0                  
TRIGTIME_ARRAY     : 0                  
RIS_TIME_ARRAY     : 0                  
RES_ARRAY1         : 0                  
WAVE_ARRAY_1       : 10002              
WAVE_ARRAY_2       : 0                  
RES_ARRAY2         : 0                  
RES_ARRAY3         : 0                  
INSTRUMENT_NAME    : LECROYHDO6104      
INSTRUMENT_NUMBER  : 6308               
TRACE_LABEL        :                    
RESERVED1          : 5001               
RESERVED2          : 0                  
WAVE_ARRAY_COUNT   : 5001               
PNTS_PER_SCREEN    : 5000               
FIRST_VALID_PNT    : 0                  
LAST_VALID_PNT     : 5000               
FIRST_POINT        : 0                  
SPARSING_FACTOR    : 1                  
SEGMENT_INDEX      : 0                  
SUBARRAY_COUNT     : 1                  
SWEEPS_PER_ACQ     : 200                
POINTS_PER_PAIR    : 0                  
PAIR_OFFSET        : 0                  
VERTICAL_GAIN      : 2.6238e-006        
VERTICAL_OFFSET    : 4.2500e-002        
MAX_VALUE          : 3.2512e+004        
MIN_VALUE          : -2.5373e+004       
NOMINAL_BITS       : 16                 
NOM_SUBARRAY_COUNT : 1                  
HORIZ_INTERVAL     : 4.0000e-010        
HORIZ_OFFSET       : -2.00000000e-007   
PIXEL_OFFSET       : -2.00000000e-007   
VERTUNIT           : Unit Name = V
HORUNIT            : Unit Name = S
HORIZ_UNCERTAINTY  : 1.0000e-012        
TRIGGER_TIME       : Date = APR 17, 2024, Time = 19:23:40.493222543
ACQ_DURATION       : 9.9989e+000        
RECORD_TYPE        : single_sweep       
PROCESSING_DONE    : no_processing      
RESERVED5          : 0                  
RIS_SWEEPS         : 1                  
TIMEBASE           : 200_ns/div         
VERT_COUPLING      : DC_50_Ohms         
PROBE_ATT          : 1.0000e+000        
FIXED_VERT_GAIN    : 20_mV/div          
BANDWIDTH_LIMIT    : off                
VERTICAL_VERNIER   : 1.0500e+000        
ACQ_VERT_OFFSET    : 0.0000e+000        
WAVE_SOURCE        : UNKNOWN            
"
0.001338
0.001335
0.001330
0.001309
0.001304
0.001317
0.001301
0.001320
0.001291
0.001330
0.001314
0.001314
0.001335
0.001296
0.001291
0.001228
0.001191
0.001194
0.001230
0.001228
0.001265
0.001293
0.001312
0.001309
0.001320
0.001328
0.001312
0.001286
0.001283
0.001322
0.001309
0.001320
0.001328
0.001322
0.001304
0.001314
0.001330
0.001314
0.001330
0.001312
0.001335
0.001338
0.001346
0.001343
0.001335
0.001354
0.001349
0.001322
0.001346
0.001330
0.001299
0.001333
0.001317
0.001333
0.001333
0.001320
0.001335
0.001317
0.001328
0.001343
0.001325
0.001317
0.001346
0.001304
0.001330
0.001330
0.001307
0.001322
0.001317
0.001341
0.001312
0.001356
0.001370
0.001317
0.001301
0.001283
0.001301
0.001312
0.001317
0.001330
0.001317
0.001307
0.001320
0.001322
0.001328
0.001341
0.001312
0.001312
0.001338
0.001346
0.001335
0.001328
0.001328
0.001335
0.001322
0.001304
0.001351
0.001328
0.001293
0.001312
0.001320
0.001333
0.001314
0.001335
0.001328
0.001338
0.001320
0.001296
0.001354
0.001335
0.001335
0.001349
0.001317
0.001349
0.001314
0.001338
0.001328
0.001349
0.001312
0.001356
0.001328
0.001293
0.001322
0.001296
0.001307
0.001309
0.001307
0.001301
0.001328
0.001309
0.001304
0.001312
0.001320
0.001325
0.001322
0.001307
0.001304
0.001325
0.001301
0.001328
0.001301
0.001325
0.001335
0.001322
0.001322
0.001335
0.001330
0.001317
0.001330
0.001335
0.001349
0.001317
0.001330
0.001328
0.001296
0.001320
0.001328
0.001351
0.001325
0.001312
0.001349
0.001322
0.001346
0.001307
0.001322
0.001330
0.001341
0.001341
0.001341
0.001349
0.001322
0.001309
0.001349
0.001333
0.001330
0.001322
0.001330
0.001312
0.001330
0.001328
0.001322
0.001330
0.001309
0.001304
0.001286
0.001283
0.001254
0.001291
0.001293
0.001301
0.001317
0.001325
0.001359
0.001333
0.001343
0.001320
0.001346
0.001328
0.001317
0.001333
0.001338
0.001325
0.001320
0.001309
0.001333
0.001309
0.001333
0.001330
0.001314
0.001307
0.001325
0.001304
0.001317
0.001322
0.001356
0.001335
0.001346
0.001343
0.001314
0.001304
0.001335
0.001309
0.001338
0.001333
0.001330
0.001314
0.001309
0.001343
0.001341
0.001307
0.001335
0.001328
0.001330
0.001320
0.001322
0.001325
0.001325
0.001364
0.001338
0.001330
0.001328
0.001328
0.001307
0.001325
0.001338
0.001314
0.001309
0.001309
0.001328
0.001304
0.001328
0.001349
0.001349
0.001333
0.001356
0.001364
0.001320
0.001354
0.001333
0.001325
0.001351
0.001307
0.001286
0.001314
0.001320
0.001325
0.001296
0.001320
0.001328
0.001304
0.001328
0.001320
0.001338
0.001333
0.001346
0.001335
0.001322
0.001322
0.001338
0.001299
0.001325
0.001330
0.001312
0.001325
0.001312
0.001330
0.001299
0.001312
0.001328
0.001330
0.001330
0.001309
0.001317
0.001330
0.001309
0.001314
0.001325
0.001335
0.001328
0.001333
0.001312
0.001328
0.001286
0.001296
0.001317
0.001341
0.001343
0.001312
0.001325
0.001322
0.001322
0.001359
0.001335
0.001322
0.001351
0.001341
0.001346
0.001322
0.001333
0.001325
0.001320
0.001317
0.001291
0.001299
0.001314
0.001288
0.001299
0.001304
0.001317
0.001312
0.001349
0.001349
0.001325
0.001330
0.001309
0.001322
0.001312
0.001320
0.001320
0.001304
0.001333
0.001330
0.001312
0.001346
0.001330
0.001330
0.001325
0.001328
0.001338
0.001317
0.001335
0.001322
0.001346
0.001328
0.001335
0.001335
0.001293
0.001309
0.001304
0.001283
0.001317
0.001349
0.001333
0.001314
0.001317
0.001328
0.001354
0.001338
0.001320
0.001330
0.001328
0.001322
0.001320
0.001333
0.001335
0.001296
0.001317
0.001317
0.001320
0.001325
0.001317
0.001341
0.001333
0.001299
0.001325
0.001325
0.001286
0.001296
0.001304
0.001312
0.001335
0.001309
0.001322
0.001314
0.001341
0.001333
0.001333
0.001312
0.001304
0.001291
0.001286
0.001312
0.001317
0.001312
0.001322
0.001335
0.001314
0.001301
0.001317
0.001314
0.001333
0.001341
0.001317
0.001335
0.001320
0.001304
0.001330
0.001338
0.001320
0.001312
0.001325
0.001349
0.001333
0.001338
0.001343
0.001317
0.001322
0.001325
0.001343
0.001333
0.001314
0.001333
0.001343
0.001307
0.001309
0.001322
0.001333
0.001341
0.001354
0.001330
0.001301
0.001299
0.001288
0.001291
0.001351
0.001346
0.001328
0.001322
0.001351
0.001309
0.001320
0.001335
0.001362
0.001328
0.001304
0.001320
0.001328
0.001288
0.001320
0.001328
0.001343
0.001333
0.001333
0.001286
0.001304
0.001301
0.001320
0.001335
0.001398
0.001356
0.001343
0.001317
0.001312
0.001301
0.001275
0.001262
0.001259
0.001286
0.001286
0.001314
0.001338
0.001335
0.001385
0.001370
0.001385
0.001349
0.001341
0.001346
0.001338
0.001338
0.001325
0.001293
0.001312
0.001317
0.001335
0.001349
0.001335
0.001328
0.001317
0.001283
0.001283
0.001288
0.001314
0.001291
0.001320
0.001309
0.001278
0.001296
0.001349
0.001377
0.001398
0.001375
0.001351
0.001299
0.001270
0.001278
0.001278
0.001314
0.001354
0.001362
0.001354
0.001359
0.001375
0.001362
0.001364
0.001343
0.001304
0.001286
0.001262
0.001246
0.001257
0.001333
0.001349
0.001346
0.001367
0.001359
0.001359
0.001346
0.001335
0.001341
0.001343
0.001312
0.001275
0.001262
0.001270
0.001309
0.001328
0.001328
0.001346
0.001346
0.001343
0.001346
0.001377
0.001372
0.001343
0.001320
0.001278
0.001251
0.001204
0.001139
0.001028
0.000866
0.000519
-0.000021
-0.000806
-0.001986
-0.003608
-0.005258
-0.006741
-0.008391
-0.010417
-0.012571
-0.014486
-0.016037
-0.017057
-0.017732
-0.018251
-0.018545
-0.018768
-0.018873
-0.018763
-0.018511
-0.018456
-0.018419
-0.017729
-0.016858
-0.016404
-0.016268
-0.016323
-0.016672
-0.017073
-0.017036
-0.016575
-0.015979
-0.015307
-0.014864
-0.014649
-0.014510
-0.014541
-0.014741
-0.014675
-0.014289
-0.013799
-0.013161
-0.012775
-0.012781
-0.012896
-0.012794
-0.012366
-0.011986
-0.011936
-0.011889
-0.011726
-0.011595
-0.011424
-0.011101
-0.010926
-0.010981
-0.011091
-0.011138
-0.011025
-0.010773
-0.010621
-0.010634
-0.010577
-0.010464
-0.010283
-0.009960
-0.009551
-0.009582
-0.009834
-0.009698
-0.009328
-0.009288
-0.009351
-0.009225
-0.009034
-0.009207
-0.009414
-0.009278
-0.008950
-0.008727
-0.008451
-0.008116
-0.008194
-0.008509
-0.008682
-0.008771
-0.008937
-0.008861
-0.008585
-0.008265
-0.007955
-0.007856
-0.007816
-0.007667
-0.007593
-0.007803
-0.008005
-0.007816
-0.007551
-0.007554
-0.007483
-0.007273
-0.007365
-0.007819
-0.008102
-0.008236
-0.008189
-0.007743
-0.007307
-0.007239
-0.007284
-0.007284
-0.007250
-0.007523
-0.008053
-0.008472
-0.008475
-0.008234
-0.008008
-0.007659
-0.007202
-0.006853
-0.006644
-0.006725
-0.006948
-0.007160
-0.007279
-0.007299
-0.007365
-0.007554
-0.007601
-0.007517
-0.007378
-0.007242
-0.007160
-0.007124
-0.007208
-0.007258
-0.007231
-0.007229
-0.007394
-0.007260
-0.006709
-0.006308
-0.006184
-0.006195
-0.006392
-0.006728
-0.006811
-0.006557
-0.006499
-0.006651
-0.006735
-0.006775
-0.006911
-0.006901
-0.006672
-0.006460
-0.006268
-0.005993
-0.005746
-0.005898
-0.006360
-0.006389
-0.005998
-0.005639
-0.005476
-0.005591
-0.005814
-0.005904
-0.005967
-0.006177
-0.006318
-0.006253
-0.006245
-0.006423
-0.006460
-0.006218
-0.006085
-0.006056
-0.005825
-0.005455
-0.005402
-0.005612
-0.005699
-0.005822
-0.006009
-0.006043
-0.005883
-0.005725
-0.005626
-0.005497
-0.005442
-0.005518
-0.005744
-0.006108
-0.006289
-0.006329
-0.006232
-0.005917
-0.005536
-0.005258
-0.005111
-0.005185
-0.005311
-0.005434
-0.005484
-0.005363
-0.005224
-0.005135
-0.004993
-0.004991
-0.005067
-0.005224
-0.005437
-0.005442
-0.005395
-0.005484
-0.005620
-0.005633
-0.005618
-0.005699
-0.005817
-0.005636
-0.005237
-0.005158
-0.005174
-0.005080
-0.005185
-0.005481
-0.005507
-0.005200
-0.005019
-0.005088
-0.005093
-0.005282
-0.005683
-0.005851
-0.005699
-0.005534
-0.005570
-0.005654
-0.005452
-0.005067
-0.004899
-0.005164
-0.005324
-0.005242
-0.005248
-0.005277
-0.005198
-0.005127
-0.005109
-0.005059
-0.005012
-0.004985
-0.004891
-0.004796
-0.004836
-0.004817
-0.004621
-0.004605
-0.004710
-0.004736
-0.004676
-0.004621
-0.004516
-0.004363
-0.004371
-0.004497
-0.004426
-0.004379
-0.004345
-0.004274
-0.004201
-0.004306
-0.004371
-0.004631
-0.004946
-0.004977
-0.004796
-0.004833
-0.005145
-0.005326
-0.005232
-0.005187
-0.005048
-0.004684
-0.004484
-0.004484
-0.004424
-0.004214
-0.003986
-0.004125
-0.004461
-0.004657
-0.004545
-0.004442
-0.004348
-0.004390
-0.004419
-0.004395
-0.004238
-0.003999
-0.003865
-0.003991
-0.004316
-0.004497
-0.004492
-0.004489
-0.004466
-0.004387
-0.004429
-0.004550
-0.004495
-0.004445
-0.004474
-0.004597
-0.004660
-0.004623
-0.004453
-0.004266
-0.004030
-0.003854
-0.004017
-0.004358
-0.004584
-0.004524
-0.004348
-0.004217
-0.004062
-0.004062
-0.004172
-0.004337
-0.004387
-0.004487
-0.004610
-0.004668
-0.004521
-0.004259
-0.004182
-0.004311
-0.004510
-0.004513
-0.004337
-0.004400
-0.004489
-0.004353
-0.004156
-0.004135
-0.004140
-0.004243
-0.004566
-0.004914
-0.004775
-0.004308
-0.004012
-0.004015
-0.004067
-0.004127
-0.004017
-0.003920
-0.003849
-0.004054
-0.004251
-0.004198
-0.003941
-0.003708
-0.003710
-0.003912
-0.004030
-0.004104
-0.004235
-0.004384
-0.004450
-0.004321
-0.004164
-0.004245
-0.004395
-0.004340
-0.004164
-0.004077
-0.003991
-0.003959
-0.004001
-0.003967
-0.003839
-0.003519
-0.003290
-0.003498
-0.004012
-0.004182
-0.003912
-0.003739
-0.003652
-0.003576
-0.003547
-0.003713
-0.003868
-0.003907
-0.003946
-0.003854
-0.003545
-0.003311
-0.003206
-0.003120
-0.003141
-0.003482
-0.003865
-0.003999
-0.004077
-0.004182
-0.004154
-0.003983
-0.003973
-0.004056
-0.003994
-0.003836
-0.003574
-0.003432
-0.003458
-0.003437
-0.003469
-0.003886
-0.004306
-0.004206
-0.003941
-0.003917
-0.003836
-0.003558
-0.003196
-0.003080
-0.003219
-0.003487
-0.003765
-0.003910
-0.003668
-0.003335
-0.003332
-0.003484
-0.003374
-0.003259
-0.003322
-0.003529
-0.003595
-0.003642
-0.003757
-0.003776
-0.003760
-0.003807
-0.003773
-0.003576
-0.003377
-0.003353
-0.003390
-0.003479
-0.003663
-0.003710
-0.003516
-0.003403
-0.003309
-0.003217
-0.003353
-0.003666
-0.003949
-0.003973
-0.003823
-0.003734
-0.003681
-0.003435
-0.003311
-0.003474
-0.003521
-0.003359
-0.003193
-0.003288
-0.003240
-0.003033
-0.003020
-0.003267
-0.003314
-0.003293
-0.003479
-0.003587
-0.003324
-0.003017
-0.002986
-0.002996
-0.002899
-0.002894
-0.003020
-0.003067
-0.002968
-0.003122
-0.003178
-0.003096
-0.003112
-0.003269
-0.003385
-0.003563
-0.003618
-0.003498
-0.003285
-0.003010
-0.002776
-0.002857
-0.003154
-0.003448
-0.003314
-0.002952
-0.002871
-0.003070
-0.003122
-0.003086
-0.003178
-0.003272
-0.003364
-0.003616
-0.003818
-0.003679
-0.003280
-0.002915
-0.002894
-0.003109
-0.003290
-0.003508
-0.003731
-0.003763
-0.003516
-0.003240
-0.003088
-0.002920
-0.002718
-0.002713
-0.002865
-0.003107
-0.003141
-0.003086
-0.003073
-0.003044
-0.002986
-0.002910
-0.002936
-0.003025
-0.003094
-0.003146
-0.003086
-0.003067
-0.003130
-0.003217
-0.003075
-0.003036
-0.003222
-0.003280
-0.003101
-0.003125
-0.003298
-0.003225
-0.002983
-0.003115
-0.003235
-0.002926
-0.002731
-0.002939
-0.002949
-0.002897
-0.003094
-0.003369
-0.003222
-0.002952
-0.002847
-0.002865
-0.002721
-0.002595
-0.002687
-0.002734
-0.002787
-0.002928
-0.003094
-0.003107
-0.002836
-0.002632
-0.002726
-0.003033
-0.003109
-0.002954
-0.002913
-0.002876
-0.002716
-0.002598
-0.002627
-0.002506
-0.002288
-0.002438
-0.002721
-0.002831
-0.002603
-0.002432
-0.002385
-0.002456
-0.002548
-0.002603
-0.002627
-0.002731
-0.002920
-0.002994
-0.002952
-0.002881
-0.002716
-0.002548
-0.002627
-0.002907
-0.002983
-0.002941
-0.002865
-0.002789
-0.002695
-0.002624
-0.002737
-0.002839
-0.002773
-0.002595
-0.002537
-0.002506
-0.002571
-0.002724
-0.002708
-0.002692
-0.002776
-0.002873
-0.002868
-0.002844
-0.002805
-0.002768
-0.002724
-0.002826
-0.002936
-0.002779
-0.002477
-0.002430
-0.002385
-0.002159
-0.002157
-0.002375
-0.002469
-0.002401
-0.002406
-0.002511
-0.002574
-0.002540
-0.002532
-0.002598
-0.002632
-0.002603
-0.002516
-0.002498
-0.002535
-0.002558
-0.002556
-0.002752
-0.002994
-0.003023
-0.002818
-0.002771
-0.002724
-0.002435
-0.002267
-0.002304
-0.002375
-0.002411
-0.002482
-0.002634
-0.002543
-0.002535
-0.002842
-0.003033
-0.002863
-0.002695
-0.002829
-0.002933
-0.002810
-0.002676
-0.002679
-0.002606
-0.002445
-0.002482
-0.002388
-0.002283
-0.002304
-0.002430
-0.002356
-0.002296
-0.002401
-0.002472
-0.002495
-0.002540
-0.002506
-0.002296
-0.002220
-0.002464
-0.002724
-0.002750
-0.002532
-0.002272
-0.002049
-0.001997
-0.002097
-0.002204
-0.002180
-0.002170
-0.002238
-0.002280
-0.002259
-0.002330
-0.002309
-0.002346
-0.002341
-0.002262
-0.002180
-0.002257
-0.002270
-0.002325
-0.002453
-0.002438
-0.002246
-0.002246
-0.002330
-0.002451
-0.002506
-0.002548
-0.002385
-0.002228
-0.002338
-0.002606
-0.002592
-0.002348
-0.002196
-0.002117
-0.002028
-0.002031
-0.002152
-0.002236
-0.002175
-0.002117
-0.002091
-0.002020
-0.002081
-0.002296
-0.002550
-0.002661
-0.002550
-0.002445
-0.002435
-0.002487
-0.002461
-0.002393
-0.002335
-0.002262
-0.002191
-0.002191
-0.002157
-0.001965
-0.001873
-0.002094
-0.002364
-0.002569
-0.002653
-0.002556
-0.002262
-0.002055
-0.002094
-0.002199
-0.002225
-0.002264
-0.002440
-0.002566
-0.002490
-0.002377
-0.002191
-0.002086
-0.002246
-0.002506
-0.002658
-0.002716
-0.002642
-0.002503
-0.002335
-0.002091
-0.001808
-0.001776
-0.001847
-0.001902
-0.001881
-0.001892
-0.002018
-0.002136
-0.002070
-0.002049
-0.002149
-0.002278
-0.002157
-0.002023
-0.002005
-0.002146
-0.002275
-0.002338
-0.002367
-0.002301
-0.002257
-0.002270
-0.002183
-0.002183
-0.002180
-0.002241
-0.002333
-0.002548
-0.002619
-0.002406
-0.002057
-0.001868
-0.001847
-0.001871
-0.001866
-0.001968
-0.001931
-0.001826
-0.001892
-0.002013
-0.002060
-0.002018
-0.001950
-0.001997
-0.002144
-0.002238
-0.002278
-0.002291
-0.002230
-0.002396
-0.002461
-0.002262
-0.001997
-0.002005
-0.001984
-0.002057
-0.002131
-0.001952
-0.001779
-0.001716
-0.001797
-0.001900
-0.001879
-0.001834
-0.001936
-0.002044
-0.002081
-0.002146
-0.002159
-0.002125
-0.002099
-0.001989
-0.001981
-0.002052
-0.002207
-0.002296
-0.002199
-0.001999
-0.001868
-0.001782
-0.001845
-0.001973
-0.001887
-0.001671
-0.001656
-0.001774
-0.001839
-0.001842
-0.001897
-0.001889
-0.001790
-0.001774
-0.001824
-0.001905
-0.001965
-0.002031
-0.001994
-0.002007
-0.002060
-0.001994
-0.001936
-0.001999
-0.001952
-0.002041
-0.002178
-0.002254
-0.002188
-0.002060
-0.001897
-0.001829
-0.001821
-0.001915
-0.001957
-0.001910
-0.001842
-0.001748
-0.001603
-0.001530
-0.001548
-0.001624
-0.001553
-0.001614
-0.001832
-0.001929
-0.001860
-0.001792
-0.001755
-0.001748
-0.001808
-0.001981
-0.002002
-0.001876
-0.001706
-0.001719
-0.001779
-0.001803
-0.001879
-0.001968
-0.002013
-0.002049
-0.002013
-0.001992
-0.001892
-0.001826
-0.001800
-0.001818
-0.001745
-0.001614
-0.001627
-0.001695
-0.001695
-0.001656
-0.001637
-0.001590
-0.001433
-0.001341
-0.001488
-0.001648
-0.001695
-0.001769
-0.001792
-0.001803
-0.001829
-0.001774
-0.001538
-0.001338
-0.001309
-0.001412
-0.001472
-0.001564
-0.001679
-0.001871
-0.001913
-0.001889
-0.001758
-0.001606
-0.001538
-0.001580
-0.001601
-0.001577
-0.001582
-0.001640
-0.001753
-0.001842
-0.001808
-0.001769
-0.001845
-0.001879
-0.001774
-0.001763
-0.001732
-0.001713
-0.001837
-0.002049
-0.002076
-0.001879
-0.001587
-0.001511
-0.001538
-0.001587
-0.001580
-0.001553
-0.001540
-0.001546
-0.001585
-0.001572
-0.001527
-0.001475
-0.001446
-0.001525
-0.001650
-0.001648
-0.001532
-0.001462
-0.001451
-0.001538
-0.001664
-0.001706
-0.001771
-0.001837
-0.001821
-0.001784
-0.001703
-0.001606
-0.001608
-0.001706
-0.001682
-0.001698
-0.001713
-0.001742
-0.001590
-0.001538
-0.001595
-0.001687
-0.001700
-0.001648
-0.001658
-0.001698
-0.001635
-0.001454
-0.001333
-0.001451
-0.001614
-0.001658
-0.001448
-0.001307
-0.001299
-0.001388
-0.001540
-0.001629
-0.001590
-0.001530
-0.001522
-0.001582
-0.001629
-0.001580
-0.001467
-0.001475
-0.001611
-0.001569
-0.001511
-0.001595
-0.001514
-0.001288
-0.001275
-0.001425
-0.001451
-0.001336
-0.001307
-0.001312
-0.001260
-0.001218
-0.001322
-0.001446
-0.001354
-0.001225
-0.001105
-0.001063
-0.001021
-0.001018
-0.001105
-0.001354
-0.001469
-0.001333
-0.001246
-0.001391
-0.001462
-0.001483
-0.001506
-0.001601
-0.001540
-0.001406
-0.001388
-0.001548
-0.001572
-0.001477
-0.001443
-0.001480
-0.001446
-0.001435
-0.001372
-0.001372
-0.001380
-0.001472
-0.001635
-0.001803
-0.001829
-0.001687
-0.001546
-0.001404
-0.001236
-0.001176
-0.001097
-0.001060
-0.001042
-0.001252
-0.001467
-0.001650
-0.001742
-0.001784
-0.001761
-0.001761
-0.001837
-0.001868
-0.001761
-0.001527
-0.001496
-0.001569
-0.001498
-0.001401
-0.001446
-0.001469
-0.001522
-0.001616
-0.001679
-0.001635
-0.001548
-0.001577
-0.001496
-0.001378
-0.001273
-0.001275
-0.001325
-0.001304
-0.001286
-0.001267
-0.001168
-0.001015
-0.000981
-0.001052
-0.001144
-0.001241
-0.001207
-0.001115
-0.001076
-0.001183
-0.001262
-0.001236
-0.001181
-0.001120
-0.001036
-0.001050
-0.001086
-0.001239
-0.001451
-0.001572
-0.001653
-0.001695
-0.001619
-0.001409
-0.001275
-0.001317
-0.001378
-0.001451
-0.001530
-0.001498
-0.001307
-0.001036
-0.000997
-0.001147
-0.001385
-0.001635
-0.001727
-0.001459
-0.001141
-0.001155
-0.001294
-0.001328
-0.001225
-0.001194
-0.001215
-0.001189
-0.001141
-0.001076
-0.000945
-0.000882
-0.000976
-0.001160
-0.001296
-0.001273
-0.001176
-0.001170
-0.001244
-0.001233
-0.001191
-0.001162
-0.001155
-0.001199
-0.001225
-0.001144
-0.001008
-0.000929
-0.000966
-0.001110
-0.001191
-0.001215
-0.001178
-0.001244
-0.001291
-0.001364
-0.001372
-0.001262
-0.001147
-0.001239
-0.001372
-0.001443
-0.001540
-0.001569
-0.001375
-0.001283
-0.001309
-0.001312
-0.001309
-0.001378
-0.001401
-0.001385
-0.001404
-0.001414
-0.001286
-0.001086
-0.001005
-0.001105
-0.001089
-0.001102
-0.001157
-0.001147
-0.001071
-0.000968
-0.000821
-0.000714
-0.000664
-0.000690
-0.000703
-0.000771
-0.000895
-0.000968
-0.000987
-0.000997
-0.000974
-0.001055
-0.001231
-0.001304
-0.001246
-0.001225
-0.001218
-0.001241
-0.001441
-0.001519
-0.001475
-0.001351
-0.001288
-0.001162
-0.000937
-0.000766
-0.000834
-0.001018
-0.001094
-0.001204
-0.001265
-0.001168
-0.001173
-0.001354
-0.001425
-0.001367
-0.001254
-0.001183
-0.001118
-0.001147
-0.001157
-0.001078
-0.000981
-0.001036
-0.001120
-0.001113
-0.001013
-0.001102
-0.001212
-0.001173
-0.001097
-0.001210
-0.001317
-0.001270
-0.001149
-0.001218
-0.001317
-0.001176
-0.000963
-0.001000
-0.001152
-0.001136
-0.001149
-0.001296
-0.001343
-0.001262
-0.001241
-0.001307
-0.001178
-0.000955
-0.000992
-0.001157
-0.001162
-0.001097
-0.001068
-0.001105
-0.001063
-0.001128
-0.001073
-0.000937
-0.000921
-0.001052
-0.001047
-0.000924
-0.000942
-0.001055
-0.001181
-0.001315
-0.001333
-0.001233
-0.001157
-0.001086
-0.001034
-0.001000
-0.000947
-0.000989
-0.001086
-0.001120
-0.001173
-0.001186
-0.001081
-0.001002
-0.001018
-0.001076
-0.001076
-0.000924
-0.000769
-0.000813
-0.000900
-0.000916
-0.000955
-0.000981
-0.000955
-0.000890
-0.000834
-0.000640
-0.000428
-0.000436
-0.000569
-0.000840
-0.001008
-0.001168
-0.001317
-0.001328
-0.001270
-0.001223
-0.001157
-0.001120
-0.001078
-0.001044
-0.001068
-0.001134
-0.001013
-0.000861
-0.000764
-0.000730
-0.000653
-0.000604
-0.000646
-0.000714
-0.000743
-0.000664
-0.000745
-0.000953
-0.001076
-0.001115
-0.001081
-0.001073
-0.001023
-0.000929
-0.000892
-0.000903
-0.000816
-0.000787
-0.000863
-0.000884
-0.000761
-0.000792
-0.000926
-0.001073
-0.001144
-0.001018
-0.000976
-0.001123
-0.001218
-0.001136
-0.001076
-0.001094
-0.000984
-0.000866
-0.000863
-0.000979
-0.000958
-0.000882
-0.000803
-0.000748
-0.000709
-0.000730
-0.000800
-0.000840
-0.000798
-0.000764
-0.000769
-0.000840
-0.000932
-0.000981
-0.001018
-0.001002
-0.000995
-0.000995
-0.000974
-0.000974
-0.000934
-0.000903
-0.000882
-0.000785
-0.000758
-0.000756
-0.000667
-0.000562
-0.000643
-0.000769
-0.000837
-0.000811
-0.000811
-0.000774
-0.000648
-0.000685
-0.000743
-0.000693
-0.000643
-0.000661
-0.000727
-0.000800
-0.000921
-0.000963
-0.000879
-0.000764
-0.000774
-0.000903
-0.000995
-0.001092
-0.001149
-0.001089
-0.000942
-0.000966
-0.001042
-0.001052
-0.000908
-0.000756
-0.000821
-0.001039
-0.001089
-0.000981
-0.000963
-0.000955
-0.000769
-0.000819
-0.001050
-0.001220
-0.001207
-0.001189
-0.001092
-0.000942
-0.000792
-0.000761
-0.000703
-0.000619
-0.000590
-0.000593
-0.000590
-0.000695
-0.000756
-0.000743
-0.000672
-0.000748
-0.000766
-0.000669
-0.000601
-0.000606
-0.000577
-0.000567
-0.000648
-0.000779
-0.000790
-0.000685
-0.000672
-0.000703
-0.000779
-0.000916
-0.000984
-0.001002
-0.000955
-0.000995
-0.000913
-0.000766
-0.000659
-0.000617
-0.000606
-0.000695
-0.000950
-0.001071
-0.001008
-0.000947
-0.000892
-0.000695
-0.000506
-0.000501
-0.000559
-0.000485
-0.000465
-0.000546
-0.000575
-0.000664
-0.000674
-0.000604
-0.000543
-0.000648
-0.000711
-0.000740
-0.000806
-0.000929
-0.001060
-0.001128
-0.001026
-0.000874
-0.000669
-0.000619
-0.000743
-0.000897
-0.000918
-0.000834
-0.000693
-0.000661
-0.000724
-0.000667
-0.000499
-0.000483
-0.000562
-0.000659
-0.000774
-0.000861
-0.000861
-0.000824
-0.000690
-0.000667
-0.000724
-0.000727
-0.000743
-0.000735
-0.000730
-0.000816
-0.000782
-0.000695
-0.000682
-0.000719
-0.000808
-0.000979
-0.000995
-0.000892
-0.000903
-0.000924
-0.000866
-0.000798
-0.000761
-0.000803
-0.000918
-0.000963
-0.000903
-0.000790
-0.000622
-0.000611
-0.000690
-0.000758
-0.000727
-0.000866
-0.000976
-0.001013
-0.001055
-0.001078
-0.000997
-0.000871
-0.000724
-0.000572
-0.000520
-0.000409
-0.000381
-0.000354
-0.000462
-0.000575
-0.000598
-0.000588
-0.000588
-0.000653
-0.000701
-0.000795
-0.000897
-0.000911
-0.000947
-0.001015
-0.001042
-0.001023
-0.000900
-0.000879
-0.000840
-0.000787
-0.000722
-0.000753
-0.000719
-0.000643
-0.000483
-0.000567
-0.000732
-0.000785
-0.000727
-0.000577
-0.000501
-0.000475
-0.000462
-0.000483
-0.000548
-0.000491
-0.000485
-0.000488
-0.000441
-0.000438
-0.000415
-0.000514
-0.000640
-0.000737
-0.000819
-0.000921
-0.000916
-0.000876
-0.000819
-0.000829
-0.000803
-0.000672
-0.000651
-0.000711
-0.000795
-0.000743
-0.000632
-0.000638
-0.000598
-0.000499
-0.000375
-0.000383
-0.000509
-0.000514
-0.000462
-0.000493
-0.000530
-0.000465
-0.000407
-0.000506
-0.000588
-0.000491
-0.000504
-0.000771
-0.000840
-0.000685
-0.000695
-0.000829
-0.000829
-0.000832
-0.001002
-0.001063
-0.000848
-0.000659
-0.000695
-0.000785
-0.000701
-0.000622
-0.000732
-0.000866
-0.000976
-0.001057
-0.000997
-0.000771
-0.000525
-0.000475
-0.000611
-0.000745
-0.000785
-0.000771
-0.000777
-0.000758
-0.000827
-0.000871
-0.000777
-0.000604
-0.000457
-0.000328
-0.000249
-0.000302
-0.000438
-0.000538
-0.000541
-0.000548
-0.000509
-0.000493
-0.000509
-0.000630
-0.000766
-0.000808
-0.000853
-0.000960
-0.000945
-0.000769
-0.000622
-0.000556
-0.000451
-0.000470
-0.000630
-0.000653
-0.000470
-0.000396
-0.000430
-0.000496
-0.000509
-0.000559
-0.000512
-0.000465
-0.000449
-0.000430
-0.000420
-0.000276
-0.000199
-0.000360
-0.000373
-0.000318
-0.000344
-0.000488
-0.000583
-0.000651
-0.000677
-0.000648
-0.000575
-0.000585
-0.000695
-0.000811
-0.000792
-0.000632
-0.000499
-0.000467
-0.000646
-0.000779
-0.000740
-0.000614
-0.000554
-0.000559
-0.000575
-0.000541
-0.000425
-0.000283
-0.000281
-0.000386
-0.000404
-0.000399
-0.000444
-0.000556
-0.000572
-0.000520
-0.000459
-0.000459
-0.000394
-0.000281
-0.000333
-0.000362
-0.000294
-0.000396
-0.000667
-0.000792
-0.000724
-0.000653
-0.000520
-0.000470
-0.000475
-0.000514
-0.000483
-0.000341
-0.000234
-0.000218
-0.000244
-0.000328
-0.000386
-0.000417
-0.000483
-0.000606
-0.000583
-0.000520
-0.000525
-0.000506
-0.000506
-0.000606
-0.000648
-0.000577
-0.000596
-0.000648
-0.000485
-0.000386
-0.000420
-0.000475
-0.000449
-0.000417
-0.000302
-0.000218
-0.000286
-0.000467
-0.000525
-0.000402
-0.000244
-0.000281
-0.000360
-0.000365
-0.000404
-0.000409
-0.000370
-0.000402
-0.000569
-0.000695
-0.000527
-0.000331
-0.000262
-0.000257
-0.000207
-0.000249
-0.000286
-0.000276
-0.000299
-0.000462
-0.000514
-0.000407
-0.000304
-0.000302
-0.000370
-0.000465
-0.000430
-0.000386
-0.000441
-0.000564
-0.000451
-0.000304
-0.000318
-0.000354
-0.000262
-0.000273
-0.000404
-0.000457
-0.000362
-0.000381
-0.000444
-0.000270
-0.000121
-0.000168
-0.000218
-0.000137
-0.000071
-0.000058
-0.000079
-0.000116
-0.000278
-0.000488
-0.000572
-0.000556
-0.000609
-0.000664
-0.000664
-0.000667
-0.000596
-0.000520
-0.000454
-0.000412
-0.000307
-0.000202
-0.000265
-0.000388
-0.000451
-0.000415
-0.000483
-0.000488
-0.000409
-0.000394
-0.000409
-0.000404
-0.000278
-0.000163
-0.000241
-0.000278
-0.000255
-0.000283
-0.000328
-0.000294
-0.000325
-0.000454
-0.000541
-0.000478
-0.000278
-0.000213
-0.000165
-0.000168
-0.000173
-0.000199
-0.000202
-0.000333
-0.000407
-0.000538
-0.000569
-0.000583
-0.000501
-0.000365
-0.000378
-0.000564
-0.000632
-0.000538
-0.000501
-0.000480
-0.000315
-0.000176
-0.000299
-0.000465
-0.000428
-0.000433
-0.000428
-0.000535
-0.000588
-0.000638
-0.000590
-0.000517
-0.000491
-0.000491
-0.000457
-0.000457
-0.000449
-0.000388
-0.000360
-0.000478
-0.000415
-0.000352
-0.000407
-0.000423
-0.000168
0.000005
0.000026
-0.000021
-0.000087
-0.000276
-0.000402
-0.000438
-0.000299
-0.000168
-0.000134
-0.000223
-0.000291
-0.000428
-0.000703
-0.000937
-0.000966
-0.000706
-0.000441
-0.000315
-0.000063
0.000063
0.000066
-0.000008
-0.000097
-0.000202
-0.000205
-0.000181
-0.000081
-0.000081
-0.000207
-0.000315
-0.000299
-0.000255
-0.000273
-0.000307
-0.000213
-0.000139
-0.000239
-0.000360
-0.000391
-0.000388
-0.000354
-0.000202
-0.000074
-0.000071
-0.000142
-0.000286
-0.000278
-0.000307
-0.000318
-0.000299
-0.000339
-0.000333
-0.000402
-0.000436
-0.000333
-0.000331
-0.000323
-0.000228
-0.000110
-0.000102
-0.000192
-0.000307
-0.000367
-0.000375
-0.000302
-0.000255
-0.000220
-0.000218
-0.000291
-0.000415
-0.000457
-0.000472
-0.000467
-0.000491
-0.000499
-0.000485
-0.000430
-0.000307
-0.000262
-0.000328
-0.000265
-0.000160
-0.000215
-0.000197
-0.000207
-0.000270
-0.000339
-0.000312
-0.000289
-0.000199
-0.000047
0.000039
0.000010
-0.000163
-0.000239
-0.000310
-0.000357
-0.000367
-0.000302
-0.000283
-0.000255
-0.000123
-0.000100
-0.000152
-0.000173
-0.000137
-0.000144
-0.000215
-0.000192
-0.000163
-0.000199
-0.000194
-0.000163
-0.000097
-0.000053
-0.000110
-0.000160
-0.000155
-0.000202
-0.000234
-0.000181
-0.000186
-0.000181
-0.000158
-0.000192
-0.000218
-0.000247
-0.000257
-0.000362
-0.000365
-0.000194
-0.000060
-0.000047
-0.000144
-0.000215
-0.000307
-0.000341
-0.000333
-0.000302
-0.000346
-0.000299
-0.000210
-0.000223
-0.000415
-0.000459
-0.000446
-0.000386
-0.000249
-0.000113
0.000016
0.000100
0.000068
0.000003
-0.000147
-0.000336
-0.000496
-0.000444
-0.000234
-0.000037
0.000094
0.000102
0.000084
-0.000063
-0.000181
-0.000202
-0.000158
-0.000102
-0.000066
0.000037
0.000073
0.000039
-0.000037
-0.000142
-0.000241
-0.000205
-0.000039
0.000029
-0.000008
0.000058
0.000107
0.000024
-0.000011
-0.000042
-0.000171
-0.000241
-0.000184
-0.000097
-0.000074
-0.000113
-0.000071
0.000071
0.000039
-0.000037
-0.000089
-0.000095
-0.000116
-0.000081
0.000066
0.000115
0.000092
0.000081
0.000107
0.000008
-0.000137
-0.000160
-0.000202
-0.000247
-0.000199
-0.000026
0.000107
0.000086
0.000089
0.000089
-0.000021
-0.000113
-0.000058
-0.000016
-0.000116
-0.000165
-0.000152
-0.000110
-0.000129
-0.000126
-0.000116
-0.000199
-0.000331
-0.000260
-0.000047
0.000244
0.000372
0.000346
0.000215
0.000034
-0.000168
-0.000186
-0.000121
-0.000045
-0.000058
-0.000084
-0.000024
0.000066
0.000131
0.000155
0.000084
0.000018
0.000010
0.000039
-0.000034
-0.000220
-0.000336
-0.000409
-0.000444
-0.000331
-0.000137
-0.000113
-0.000189
-0.000116
-0.000039
-0.000110
-0.000220
-0.000171
-0.000097
-0.000095
0.000026
0.000034
-0.000095
-0.000231
-0.000278
-0.000333
-0.000493
-0.000548
-0.000241
0.000016
-0.000100
-0.000294
-0.000294
-0.000218
-0.000281
-0.000278
-0.000165
-0.000207
-0.000315
-0.000373
-0.000318
-0.000344
-0.000378
-0.000236
-0.000058
0.000039
0.000021
-0.000000
-0.000102
-0.000158
-0.000129
-0.000087
0.000010
0.000110
0.000142
0.000142
0.000113
0.000105
0.000060
-0.000058
-0.000244
-0.000299
-0.000241
-0.000163
-0.000089
-0.000087
-0.000144
-0.000218
-0.000168
-0.000116
-0.000087
0.000021
0.000037
-0.000047
-0.000152
-0.000147
-0.000029
0.000107
0.000168
0.000176
0.000018
-0.000118
-0.000134
-0.000163
-0.000262
-0.000213
-0.000053
0.000021
0.000016
0.000118
0.000160
0.000136
0.000165
0.000123
0.000079
0.000107
0.000186
0.000186
0.000018
-0.000000
-0.000055
-0.000134
-0.000236
-0.000257
-0.000223
-0.000155
-0.000160
-0.000084
-0.000008
-0.000021
0.000016
0.000037
0.000079
0.000097
0.000055
0.000052
0.000118
0.000186
0.000121
0.000034
-0.000029
-0.000039
0.000029
0.000215
0.000199
0.000107
0.000068
0.000039
0.000029
-0.000087
-0.000118
-0.000008
0.000105
0.000055
-0.000113
-0.000163
-0.000365
-0.000491
-0.000475
-0.000344
-0.000186
-0.000113
-0.000018
0.000139
0.000031
-0.000134
-0.000129
-0.000053
-0.000055
-0.000013
0.000045
0.000094
0.000058
0.000018
0.000068
0.000126
0.000123
0.000184
0.000220
0.000210
0.000050
-0.000055
0.000037
0.000191
0.000231
0.000199
0.000233
0.000168
0.000047
0.000076
0.000123
0.000089
-0.000042
-0.000165
-0.000218
-0.000134
0.000016
0.000126
0.000189
0.000115
0.000128
0.000102
0.000142
0.000186
0.000176
0.000207
0.000296
0.000307
0.000226
0.000128
0.000076
0.000029
0.000037
0.000107
0.000189
0.000155
0.000089
0.000021
-0.000045
-0.000081
-0.000039
-0.000024
-0.000087
-0.000087
-0.000029
-0.000021
-0.000011
-0.000060
-0.000047
0.000013
0.000123
0.000218
0.000249
0.000191
0.000168
0.000165
0.000068
-0.000063
-0.000076
0.000003
0.000060
0.000089
0.000207
0.000247
0.000231
0.000291
0.000341
0.000307
0.000205
0.000086
-0.000032
-0.000008
0.000008
-0.000021
-0.000068
-0.000071
-0.000152
-0.000257
-0.000278
-0.000160
-0.000137
-0.000079
0.000005
0.000050
0.000037
0.000058
-0.000021
-0.000144
-0.000171
-0.000186
-0.000110
-0.000021
-0.000013
0.000003
0.000016
0.000066
0.000144
0.000186
0.000170
0.000149
0.000100
0.000139
0.000092
0.000029
0.000097
0.000105
0.000081
0.000018
0.000063
0.000170
0.000220
0.000191
0.000073
-0.000034
-0.000045
-0.000018
-0.000016
0.000003
0.000018
0.000037
0.000039
0.000100
0.000163
0.000149
0.000084
0.000076
0.000157
0.000155
0.000157
0.000278
0.000244
0.000202
0.000254
0.000210
0.000052
-0.000000
0.000029
0.000063
0.000136
0.000254
0.000281
0.000265
0.000165
0.000003
-0.000168
-0.000165
-0.000021
0.000031
-0.000050
-0.000050
0.000170
0.000181
0.000037
0.000003
0.000026
-0.000011
-0.000081
-0.000037
0.000026
0.000092
0.000181
0.000294
0.000333
0.000249
0.000100
-0.000003
-0.000018
-0.000005
-0.000018
0.000037
0.000047
0.000050
0.000063
0.000055
-0.000050
-0.000089
-0.000013
0.000110
0.000270
0.000336
0.000344
0.000286
0.000184
0.000176
0.000081
0.000055
0.000005
0.000039
0.000189
0.000275
0.000331
0.000275
0.000233
0.000281
0.000249
0.000147
0.000184
0.000244
0.000149
0.000031
-0.000021
-0.000005
0.000058
0.000034
0.000097
0.000184
0.000286
0.000307
0.000331
0.000257
0.000079
0.000021
0.000105
0.000136
-0.000016
0.000029
0.000205
0.000333
0.000320
0.000333
0.000375
0.000372
0.000281
0.000302
0.000254
0.000149
0.000128
0.000178
0.000202
0.000034
-0.000084
-0.000113
-0.000110
-0.000045
0.000031
0.000191
0.000207
0.000073
-0.000045
-0.000013
-0.000045
-0.000047
0.000008
0.000128
0.000128
0.000163
0.000220
0.000118
-0.000008
-0.000013
0.000063
0.000113
0.000218
0.000307
0.000299
0.000265
0.000212
0.000186
0.000139
0.000178
0.000270
0.000375
0.000404
0.000281
0.000128
0.000076
0.000081
0.000181
0.000315
0.000365
0.000291
0.000228
0.000202
0.000155
0.000113
0.000210
0.000320
0.000331
0.000312
0.000346
0.000296
0.000244
0.000244
0.000223
0.000142
0.000220
0.000349
0.000299
0.000173
0.000100
-0.000003
-0.000039
0.000018
0.000063
0.000126
0.000168
0.000212
0.000265
0.000220
0.000168
0.000149
0.000194
0.000165
0.000121
0.000173
0.000136
0.000047
0.000131
0.000226
0.000241
0.000249
0.000338
0.000359
0.000317
0.000315
0.000346
0.000333
0.000336
0.000346
0.000375
0.000362
0.000317
0.000265
0.000260
0.000121
-0.000026
-0.000076
-0.000039
0.000026
0.000081
0.000176
0.000323
0.000349
0.000270
0.000186
0.000231
0.000270
0.000236
0.000144
0.000163
0.000223
0.000283
0.000349
0.000430
0.000430
0.000349
0.000346
0.000470
0.000422
0.000307
0.000270
0.000270
0.000294
0.000260
0.000270
0.000257
0.000113
0.000084
0.000202
0.000231
0.000281
0.000302
0.000168
0.000134
0.000252
0.000357
0.000349
0.000307
0.000328
0.000307
0.000241
0.000312
0.000372
0.000289
0.000173
0.000105
0.000139
0.000168
0.000173
0.000268
0.000254
0.000197
0.000168
0.000152
0.000136
0.000134
0.000121
0.000184
0.000257
0.000262
0.000218
0.000231
0.000202
0.000176
0.000165
0.000197
0.000178
0.000092
0.000018
0.000073
0.000223
0.000286
0.000352
0.000393
0.000404
0.000354
0.000249
0.000160
0.000123
0.000152
0.000294
0.000370
0.000459
0.000512
0.000483
0.000441
0.000456
0.000433
0.000325
0.000312
0.000362
0.000302
0.000273
0.000352
0.000438
0.000375
0.000304
0.000315
0.000304
0.000218
0.000149
0.000152
0.000191
0.000233
0.000323
0.000433
0.000462
0.000422
0.000451
0.000501
0.000456
0.000417
0.000435
0.000491
0.000493
0.000467
0.000459
0.000414
0.000317
0.000283
0.000354
0.000467
0.000525
0.000454
0.000446
0.000388
0.000302
0.000283
0.000278
0.000294
0.000233
0.000218
0.000197
0.000170
0.000168
0.000170
0.000247
0.000296
0.000386
0.000391
0.000302
0.000312
0.000341
0.000391
0.000399
0.000357
0.000265
0.000244
0.000283
0.000302
0.000268
0.000265
0.000336
0.000375
0.000352
0.000349
0.000233
0.000184
0.000236
0.000317
0.000268
0.000296
0.000367
0.000393
0.000325
0.000328
0.000299
0.000278
0.000254
0.000254
0.000199
0.000215
0.000331
0.000299
0.000233
0.000212
0.000233
0.000212
0.000184
0.000155
0.000189
0.000178
0.000202
0.000296
0.000312
0.000257
0.000218
0.000199
0.000184
0.000275
0.000270
0.000270
0.000289
0.000307
0.000307
0.000286
0.000249
0.000186
0.000176
0.000173
0.000144
0.000105
0.000018
-0.000018
0.000008
0.000102
0.000173
0.000278
0.000357
0.000365
0.000304
0.000294
0.000341
0.000310
0.000249
0.000302
0.000304
0.000252
0.000260
0.000260
0.000210
0.000144
0.000147
0.000265
0.000233
0.000205
0.000289
0.000430
0.000401
0.000315
0.000323
0.000388
0.000422
0.000372
0.000422
0.000443
0.000354
0.000422
0.000525
0.000462
0.000344
0.000362
0.000414
0.000399
0.000296
0.000291
0.000260
0.000239
0.000289
0.000291
0.000268
0.000249
0.000328
0.000464
0.000493
0.000488
0.000548
0.000585
0.000506
0.000441
0.000425
0.000428
0.000443
0.000454
0.000362
0.000323
0.000386
0.000412
0.000338
0.000312
0.000325
0.000391
0.000422
0.000464
0.000488
0.000485
0.000483
0.000459
0.000491
0.000475
0.000386
0.000239
0.000152
0.000128
0.000205
0.000304
0.000357
0.000283
0.000157
0.000283
0.000446
0.000546
0.000506
0.000464
0.000441
0.000441
0.000393
0.000370
0.000275
0.000254
0.000294
0.000378
0.000435
0.000491
0.000428
0.000359
0.000302
0.000304
0.000296
0.000239
0.000270
0.000310
0.000331
0.000252
0.000223
0.000349
0.000375
0.000260
0.000220
0.000362
0.000477
0.000517
0.000451
0.000312
0.000173
0.000176
0.000270
0.000359
0.000372
0.000247
0.000113
0.000218
0.000372
0.000540
0.000483
0.000357
0.000401
0.000449
0.000365
0.000336
0.000273
0.000157
0.000110
0.000207
0.000265
0.000333
0.000302
0.000270
0.000273
0.000365
0.000407
0.000404
0.000362
0.000331
0.000393
0.000462
0.000433
0.000336
0.000257
0.000333
0.000446
0.000546
0.000538
0.000422
0.000270
0.000289
0.000252
0.000236
0.000249
0.000317
0.000409
0.000462
0.000425
0.000372
0.000393
0.000414
0.000449
0.000480
0.000483
0.000446
0.000493
0.000582
0.000611
0.000491
0.000401
0.000435
0.000414
0.000359
0.000296
0.000367
0.000401
0.000367
0.000393
0.000331
0.000265
0.000223
0.000191
0.000244
0.000310
0.000414
0.000359
0.000391
0.000425
0.000459
0.000459
0.000404
0.000286
0.000199
0.000173
0.000202
0.000281
0.000370
0.000352
0.000346
0.000352
0.000365
0.000352
0.000320
0.000307
0.000252
0.000205
0.000296
0.000341
0.000310
0.000233
0.000239
0.000323
0.000375
0.000331
0.000336
0.000372
0.000341
0.000383
0.000477
0.000464
0.000407
0.000409
0.000488
0.000477
0.000396
0.000459
0.000622
0.000598
0.000533
0.000491
0.000412
0.000428
0.000569
0.000611
0.000501
0.000488
0.000519
0.000456
0.000464
0.000446
0.000383
0.000278
0.000289
0.000312
0.000247
0.000181
0.000181
0.000136
0.000068
0.000094
0.000168
0.000197
0.000181
0.000252
0.000401
0.000514
0.000527
0.000462
0.000441
0.000396
0.000438
0.000519
0.000585
0.000617
0.000540
0.000467
0.000420
0.000459
0.000504
0.000428
0.000372
0.000401
0.000391
0.000391
0.000404
0.000393
0.000396
0.000372
0.000441
0.000504
0.000572
0.000540
0.000451
0.000425
0.000393
0.000336
0.000294
0.000404
0.000498
0.000456
0.000388
0.000393
0.000428
0.000396
0.000464
0.000577
0.000564
0.000441
0.000404
0.000393
0.000404
0.000409
0.000396
0.000391
0.000323
0.000270
0.000286
0.000291
0.000310
0.000357
0.000459
0.000504
0.000525
0.000551
0.000596
0.000601
0.000540
0.000422
0.000344
0.000428
0.000509
0.000493
0.000446
0.000409
0.000367
0.000435
0.000559
0.000540
0.000433
0.000273
0.000121
0.000231
0.000404
0.000399
0.000365
0.000386
0.000435
0.000475
0.000561
0.000614
0.000493
0.000323
0.000372
0.000451
0.000467
0.000399
0.000378
0.000420
0.000417
0.000430
0.000456
0.000475
0.000496
0.000451
0.000383
0.000349
0.000438
0.000493
0.000404
0.000273
0.000178
0.000186
0.000236
0.000391
0.000538
0.000577
0.000593
0.000637
0.000658
0.000559
0.000491
0.000451
0.000414
0.000362
0.000367
0.000456
0.000477
0.000488
0.000540
0.000504
0.000412
0.000352
0.000393
0.000391
0.000372
0.000396
0.000533
0.000535
0.000393
0.000336
0.000367
0.000407
0.000396
0.000383
0.000414
0.000475
0.000585
0.000648
0.000677
0.000590
0.000485
0.000438
0.000441
0.000475
0.000472
0.000480
0.000548
0.000483
0.000407
0.000344
0.000396
0.000472
0.000564
0.000677
0.000727
0.000703
0.000748
0.000792
0.000819
0.000643
0.000601
0.000658
0.000661
0.000614
0.000543
0.000488
0.000438
0.000456
0.000530
0.000543
0.000483
0.000491
0.000498
0.000530
0.000572
0.000548
0.000577
0.000640
0.000556
0.000443
0.000454
0.000493
0.000517
0.000480
0.000588
0.000658
0.000601
0.000485
0.000509
0.000483
0.000378
0.000317
0.000283
0.000260
0.000226
0.000310
0.000430
0.000509
0.000543
0.000546
0.000535
0.000575
0.000561
0.000548
0.000540
0.000525
0.000496
0.000451
0.000407
0.000417
0.000475
0.000517
0.000543
0.000525
0.000530
0.000548
0.000559
0.000535
0.000501
0.000493
0.000554
0.000522
0.000451
0.000454
0.000472
0.000349
0.000315
0.000433
0.000519
0.000572
0.000590
0.000653
0.000577
0.000488
0.000475
0.000493
0.000491
0.000430
0.000446
0.000467
0.000430
0.000378
0.000336
0.000310
0.000294
0.000296
0.000407
0.000588
0.000700
0.000719
0.000711
0.000674
0.000590
0.000488
0.000470
0.000496
0.000498
0.000449
0.000454
0.000546
0.000572
0.000535
0.000443
0.000504
0.000556
0.000535
0.000535
0.000509
0.000477
0.000480
0.000606
0.000619
0.000561
0.000446
0.000451
0.000470
0.000470
0.000420
0.000346
0.000346
0.000362
0.000420
0.000559
0.000640
0.000580
0.000477
0.000491
0.000472
0.000470
0.000470
0.000480
0.000477
0.000462
0.000546
0.000617
0.000548
0.000498
0.000556
0.000653
0.000651
0.000677
0.000643
0.000575
0.000535
0.000517
0.000488
0.000514
0.000569
0.000590
0.000588
0.000575
0.000509
0.000462
0.000501
0.000593
0.000635
0.000617
0.000630
0.000617
0.000630
0.000672
0.000569
0.000459
0.000409
0.000435
0.000443
0.000467
0.000514
0.000530
0.000456
0.000483
0.000559
0.000546
0.000477
0.000517
0.000554
0.000517
0.000512
0.000593
0.000645
0.000674
0.000687
0.000735
0.000716
0.000732
0.000679
0.000614
0.000572
0.000512
0.000512
0.000538
0.000577
0.000598
0.000588
0.000648
0.000677
0.000690
0.000679
0.000658
0.000632
0.000596
0.000567
0.000559
0.000593
0.000569
0.000540
0.000546
0.000609
0.000682
0.000622
0.000588
0.000648
0.000651
0.000572
0.000593
0.000677
0.000690
0.000598
0.000593
0.000619
0.000603
0.000609
0.000677
0.000735
0.000698
0.000700
0.000766
0.000732
0.000677
0.000700
0.000795
0.000821
0.000777
0.000753
0.000761
0.000716
0.000669
0.000656
0.000619
0.000561
0.000517
0.000480
0.000449
0.000506
0.000632
0.000727
0.000769
0.000748
0.000708
0.000672
0.000664
0.000582
0.000483
0.000485
0.000530
0.000593
0.000627
0.000627
0.000559
0.000530
0.000483
0.000393
0.000430
0.000543
0.000598
0.000590
0.000601
0.000603
0.000569
0.000632
0.000677
0.000651
0.000627
0.000651
0.000669
0.000653
0.000645
0.000643
0.000643
0.000580
0.000559
0.000533
0.000435
0.000383
0.000412
0.000509
0.000596
0.000669
0.000719
0.000724
0.000706
0.000703
0.000679
0.000656
0.000651
0.000761
0.000748
0.000698
0.000737
0.000708
0.000564
0.000533
0.000590
0.000700
0.000693
0.000766
0.000861
0.000787
0.000732
0.000735
0.000708
0.000569
0.000572
0.000653
0.000661
0.000588
0.000519
0.000443
0.000396
0.000412
0.000535
0.000609
0.000585
0.000519
0.000514
0.000527
0.000637
0.000769
0.000714
0.000658
0.000653
0.000653
0.000677
0.000735
0.000784
0.000756
0.000708
0.000635
0.000645
0.000643
0.000677
0.000669
0.000640
0.000677
0.000695
0.000727
0.000763
0.000756
0.000698
0.000593
0.000593
0.000596
0.000609
0.000624
0.000609
0.000564
0.000585
0.000664
0.000635
0.000575
0.000585
0.000551
0.000569
0.000643
0.000703
0.000693
0.000640
0.000611
0.000716
0.000622
0.000554
0.000601
0.000658
0.000698
0.000753
0.000724
0.000695
0.000727
0.000742
0.000714
0.000677
0.000648
0.000593
0.000590
0.000632
0.000569
0.000438
0.000357
0.000496
0.000504
0.000451
0.000475
0.000525
0.000588
0.000614
0.000669
0.000643
0.000498
0.000498
0.000575
0.000593
0.000622
0.000640
0.000690
0.000758
0.000782
0.000816
0.000834
0.000769
0.000766
0.000816
0.000782
0.000687
0.000627
0.000614
0.000575
0.000538
0.000585
0.000658
0.000661
0.000687
0.000661
0.000632
0.000491
0.000491
0.000588
0.000693
0.000716
0.000661
0.000624
0.000690
0.000679
0.000590
0.000527
0.000519
0.000522
0.000498
0.000464
0.000546
0.000603
0.000656
0.000630
0.000640
0.000601
0.000540
0.000399
0.000414
0.000559
0.000606
0.000603
0.000651
0.000735
0.000672
0.000572
0.000522
0.000467
0.000472
0.000522
0.000603
0.000690
0.000674
0.000645
0.000700
0.000721
0.000687
0.000690
0.000784
0.000819
0.000771
0.000821
0.000902
0.000863
0.000784
0.000724
0.000645
0.000598
0.000517
0.000435
0.000422
0.000435
0.000512
0.000509
0.000512
0.000548
0.000637
0.000735
0.000813
0.000795
0.000779
0.000700
0.000669
0.000637
0.000606
0.000546
0.000546
0.000590
0.000596
0.000632
0.000611
0.000590
0.000637
0.000711
0.000695
0.000687
0.000714
0.000742
0.000748
0.000706
0.000711
0.000737
0.000790
0.000824
0.000837
0.000724
0.000769
0.000832
0.000745
0.000685
0.000679
0.000727
0.000716
0.000637
0.000575
0.000564
0.000596
0.000632
0.000661
0.000664
0.000666
0.000658
0.000630
0.000569
0.000525
0.000480
0.000575
0.000598
0.000682
0.000729
0.000724
0.000672
0.000632
0.000645
0.000624
0.000590
0.000637
0.000630
0.000630
0.000645
0.000682
0.000669
0.000679
0.000669
0.000682
0.000656
0.000651
0.000637
0.000551
0.000535
0.000648
0.000666
0.000609
0.000546
0.000546
0.000517
0.000501
0.000519
0.000509
0.000467
0.000493
0.000609
0.000669
0.000682
0.000703
0.000732
0.000784
0.000834
0.000853
0.000795
0.000719
0.000648
0.000551
0.000522
0.000585
0.000677
0.000632
0.000485
0.000396
0.000367
0.000393
0.000451
0.000519
0.000551
0.000577
0.000606
0.000648
0.000708
0.000687
0.000700
0.000672
0.000617
0.000606
0.000653
0.000653
0.000609
0.000551
0.000530
0.000603
0.000658
0.000617
0.000559
0.000533
0.000496
0.000509
0.000603
0.000672
0.000658
0.000656
0.000714
0.000758
0.000661
0.000569
0.000569
0.000582
0.000627
0.000758
0.000842
0.000782
0.000719
0.000753
0.000763
0.000745
0.000771
0.000777
0.000771
0.000706
0.000708
0.000740
0.000711
0.000601
0.000540
0.000580
0.000674
0.000716
0.000698
0.000679
0.000551
0.000464
0.000496
0.000624
0.000672
0.000761
0.000855
0.000902
0.000800
0.000771
0.000742
0.000740
0.000763
0.000798
0.000758
0.000714
0.000745
0.000748
0.000732
0.000714
0.000700
0.000716
0.000732
0.000693
0.000640
0.000669
0.000658
0.000640
0.000643
0.000714
0.000790
0.000787
0.000837
0.000813
0.000732
0.000716
0.000700
0.000703
0.000677
0.000724
0.000808
0.000792
0.000808
0.000855
0.000834
0.000811
0.000711
0.000653
0.000580
0.000609
0.000737
0.000811
0.000787
0.000787
0.000774
0.000779
0.000861
0.000947
0.000981
0.000931
0.000821
0.000737
0.000679
0.000619
0.000656
0.000653
0.000669
0.000666
0.000645
0.000682
0.000729
0.000721
0.000632
0.000603
0.000643
0.000703
0.000758
0.000853
0.000847
0.000769
0.000792
0.000850
0.000884
0.000829
0.000706
0.000687
0.000711
0.000674
0.000693
0.000769
0.000777
0.000800
0.000829
0.000803
0.000750
0.000761
0.000792
0.000787
0.000798
0.000805
0.000795
0.000840
0.000855
0.000863
0.000774
0.000756
0.000834
0.000819
0.000771
0.000769
0.000787
0.000787
0.000798
0.000824
0.000829
0.000769
0.000750
0.000748
0.000651
0.000575
0.000611
0.000640
0.000666
0.000737
0.000784
0.000771
0.000782
0.000819
0.000784
0.000763
0.000753
0.000779
0.000790
0.000774
0.000682
0.000593
0.000603
0.000695
0.000693
0.000677
0.000700
0.000826
0.000910
0.000934
0.000950
0.000931
0.000902
0.000918
0.000986
0.000908
0.000808
0.000727
0.000674
0.000708
0.000729
0.000816
0.000821
0.000805
0.000758
0.000716
0.000580
0.000540
0.000617
0.000729
0.000745
0.000792
0.000819
0.000884
0.000813
0.000724
0.000724
0.000792
0.000798
0.000779
0.000798
0.000790
0.000677
0.000627
0.000630
0.000653
0.000609
0.000580
0.000661
0.000711
0.000606
0.000588
0.000596
0.000624
0.000666
0.000769
0.000826
0.000832
0.000824
0.000884
0.000882
0.000829
0.000779
0.000774
0.000737
0.000714
0.000674
0.000617
0.000617
0.000677
0.000690
0.000727
0.000808
0.000879
0.000816
0.000766
0.000798
0.000863
0.000876
0.000866
0.000808
0.000826
0.000895
0.000866
0.000837
0.000735
0.000648
0.000672
0.000800
0.000868
0.000853
0.000826
0.000779
0.000745
0.000727
0.000769
0.000771
0.000763
0.000690
0.000706
0.000745
0.000790
0.000790
0.000811
0.000819
0.000808
0.000808
0.000876
0.000837
0.000735
0.000648
0.000637
0.000648
0.000611
0.000601
0.000700
0.000703
0.000635
0.000664
0.000766
0.000834
0.000816
0.000819
0.000798
0.000784
0.000777
0.000777
0.000761
0.000685
0.000661
0.000695
0.000729
0.000729
0.000643
0.000609
0.000682
0.000706
0.000816
0.000900
0.000918
0.000858
0.000792
0.000850
0.000895
0.000871
0.000800
0.000821
0.000858
0.000874
0.000876
0.000847
0.000787
0.000745
0.000711
0.000761
0.000803
0.000855
0.000834
0.000753
0.000614
0.000614
0.000740
0.000795
0.000826
0.000821
0.000795
0.000813
0.000850
0.000874
0.000866
0.000792
0.000753
0.000792
0.000813
0.000842
0.000826
0.000685
0.000569
0.000585
0.000700
0.000784
0.000824
0.000832
0.000876
0.000921
0.000861
0.000840
0.000805
0.000748
0.000640
0.000614
0.000622
0.000596
0.000603
0.000635
0.000706
0.000792
0.000884
0.000902
0.000845
0.000855
0.000858
0.000855
0.000792
0.000653
0.000577
0.000632
0.000687
0.000693
0.000714
0.000735
0.000811
0.000884
0.000939
0.000923
0.000829
0.000876
0.000892
0.000926
0.000892
0.000874
0.000782
0.000661
0.000590
0.000572
0.000561
0.000622
0.000727
0.000787
0.000784
0.000805
0.000832
0.000798
0.000735
0.000777
0.000855
0.000782
0.000716
0.000777
0.000853
0.000847
0.000808
0.000795
0.000826
0.000819
0.000766
0.000850
0.000879
0.000826
0.000816
0.000771
0.000664
0.000567
0.000556
0.000538
0.000538
0.000551
0.000624
0.000651
0.000679
0.000653
0.000658
0.000653
0.000651
0.000698
0.000727
0.000798
0.000813
0.000777
0.000769
0.000805
0.000871
0.000876
0.000847
0.000819
0.000879
0.000908
0.000858
0.000735
0.000753
0.000792
0.000735
0.000740
0.000742
0.000735
0.000708
0.000685
0.000677
0.000640
0.000700
0.000795
0.000837
0.000845
0.000853
0.000902
0.000842
0.000769
0.000672
0.000666
0.000645
0.000735
0.000779
0.000761
0.000745
0.000829
0.000853
0.000840
0.000866
0.000847
0.000868
0.000861
0.000824
0.000782
0.000782
0.000800
0.000871
0.000879
0.000847
0.000763
0.000821
0.000863
0.000766
0.000627
0.000527
0.000585
0.000603
0.000658
0.000714
0.000627
0.000554
0.000640
0.000766
t0(sec) = 0.000000E+0
dt(sec) = 4.000000E-10
F3:INSP "
DESCRIPTOR_NAME    : WAVEDESC           
TEMPLATE_NAME      : LECROY_2_3         
COMM_TYPE          : word               
COMM_ORDER         : HIFIRST            
WAVE_DESCRIPTOR    : 346                
USER_TEXT          : 0                  
RES_DESC1          : 0                  
TRIGTIME_ARRAY     : 0                  
RIS_TIME_ARRAY     : 0                  
RES_ARRAY1         : 0                  
WAVE_ARRAY_1       : 9952               
WAVE_ARRAY_2       : 0                  
RES_ARRAY2         : 0                  
RES_ARRAY3         : 0                  
INSTRUMENT_NAME    : LECROYHDO6104      
INSTRUMENT_NUMBER  : 6308               
TRACE_LABEL        :                    
RESERVED1          : 4976               
RESERVED2          : 0                  
WAVE_ARRAY_COUNT   : 4976               
PNTS_PER_SCREEN    : 5000               
FIRST_VALID_PNT    : 0                  
LAST_VALID_PNT     : 4975               
FIRST_POINT        : 0                  
SPARSING_FACTOR    : 1                  
SEGMENT_INDEX      : 0                  
SUBARRAY_COUNT     : 1                  
SWEEPS_PER_ACQ     : 200                
POINTS_PER_PAIR    : 0                  
PAIR_OFFSET        : 0                  
VERTICAL_GAIN      : 2.4989e-006        
VERTICAL_OFFSET    : 1.6500e-002        
MAX_VALUE          : 3.0578e+004        
MIN_VALUE          : 1.4827e+004        
NOMINAL_BITS       : 16                 
NOM_SUBARRAY_COUNT : 1                  
HORIZ_INTERVAL     : 4.0000e-010        
HORIZ_OFFSET       : -2.00000000e-007   
PIXEL_OFFSET       : -2.10000000e-007   
VERTUNIT           : Unit Name = V
HORUNIT            : Unit Name = S
HORIZ_UNCERTAINTY  : 1.0000e-012        
TRIGGER_TIME       : Date = APR 17, 2024, Time = 19:23:40.493222543
ACQ_DURATION       : 9.9989e+000        
RECORD_TYPE        : single_sweep       
PROCESSING_DONE    : no_processing      
RESERVED5          : 0                  
RIS_SWEEPS         : 1                  
TIMEBASE           : 200_ns/div         
VERT_COUPLING      : DC_50_Ohms         
PROBE_ATT          : 1.0000e+000        
FIXED_VERT_GAIN    : 5_mV/div           
BANDWIDTH_LIMIT    : off                
VERTICAL_VERNIER   : 1.0000e+000        
ACQ_VERT_OFFSET    : 0.0000e+000        
WAVE_SOURCE        : UNKNOWN            
"
0.000562
0.000565
0.000547
0.000550
0.000575
0.000550
0.000562
0.000560
0.000552
0.000527
0.000562
0.000555
0.000547
0.000542
0.000570
0.000522
0.000552
0.000567
0.000540
0.000535
0.000547
0.000550
0.000582
0.000567
0.000580
0.000525
0.000550
0.000565
0.000555
0.000532
0.000550
0.000530
0.000540
0.000550
0.000537
0.000497
0.000517
0.000522
0.000535
0.000520
0.000550
0.000552
0.000547
0.000552
0.000570
0.000527
0.000550
0.000565
0.000590
0.000555
0.000597
0.000570
0.000550
0.000545
0.000555
0.000520
0.000517
0.000527
0.000527
0.000510
0.000555
0.000550
0.000545
0.000547
0.000555
0.000515
0.000555
0.000560
0.000580
0.000542
0.000557
0.000550
0.000540
0.000537
0.000562
0.000512
0.000557
0.000535
0.000535
0.000520
0.000537
0.000532
0.000532
0.000522
0.000535
0.000535
0.000555
0.000562
0.000577
0.000542
0.000555
0.000575
0.000532
0.000575
0.000565
0.000580
0.000570
0.000557
0.000550
0.000515
0.000550
0.000565
0.000547
0.000555
0.000557
0.000515
0.000552
0.000552
0.000555
0.000547
0.000565
0.000552
0.000577
0.000547
0.000582
0.000585
0.000537
0.000545
0.000590
0.000542
0.000572
0.000547
0.000555
0.000550
0.000550
0.000540
0.000530
0.000540
0.000552
0.000535
0.000545
0.000527
0.000555
0.000550
0.000547
0.000545
0.000562
0.000540
0.000567
0.000562
0.000555
0.000557
0.000565
0.000545
0.000577
0.000562
0.000567
0.000532
0.000562
0.000535
0.000527
0.000520
0.000530
0.000537
0.000507
0.000522
0.000572
0.000530
0.000537
0.000540
0.000565
0.000547
0.000552
0.000550
0.000555
0.000525
0.000565
0.000555
0.000570
0.000550
0.000555
0.000527
0.000535
0.000540
0.000535
0.000530
0.000537
0.000527
0.000527
0.000530
0.000560
0.000530
0.000532
0.000540
0.000550
0.000517
0.000590
0.000562
0.000527
0.000550
0.000530
0.000507
0.000542
0.000537
0.000530
0.000535
0.000527
0.000535
0.000555
0.000537
0.000550
0.000520
0.000525
0.000535
0.000565
0.000540
0.000555
0.000562
0.000542
0.000535
0.000570
0.000532
0.000550
0.000547
0.000552
0.000535
0.000560
0.000540
0.000560
0.000555
0.000547
0.000530
0.000552
0.000540
0.000547
0.000545
0.000535
0.000532
0.000540
0.000535
0.000552
0.000517
0.000560
0.000527
0.000565
0.000550
0.000560
0.000575
0.000582
0.000545
0.000537
0.000522
0.000562
0.000545
0.000560
0.000542
0.000552
0.000530
0.000557
0.000545
0.000555
0.000535
0.000577
0.000590
0.000550
0.000585
0.000565
0.000535
0.000555
0.000552
0.000550
0.000535
0.000552
0.000532
0.000552
0.000550
0.000537
0.000527
0.000532
0.000550
0.000547
0.000535
0.000565
0.000537
0.000527
0.000552
0.000572
0.000540
0.000590
0.000570
0.000560
0.000547
0.000597
0.000542
0.000550
0.000550
0.000572
0.000522
0.000552
0.000552
0.000542
0.000530
0.000530
0.000537
0.000517
0.000535
0.000565
0.000520
0.000545
0.000560
0.000542
0.000522
0.000575
0.000570
0.000522
0.000545
0.000547
0.000527
0.000530
0.000555
0.000540
0.000535
0.000560
0.000547
0.000532
0.000547
0.000587
0.000542
0.000535
0.000570
0.000552
0.000520
0.000582
0.000565
0.000527
0.000535
0.000570
0.000515
0.000520
0.000550
0.000547
0.000530
0.000577
0.000572
0.000520
0.000522
0.000585
0.000502
0.000515
0.000547
0.000537
0.000520
0.000540
0.000550
0.000500
0.000515
0.000545
0.000507
0.000530
0.000542
0.000550
0.000527
0.000552
0.000560
0.000520
0.000530
0.000562
0.000535
0.000537
0.000560
0.000552
0.000520
0.000545
0.000550
0.000555
0.000530
0.000560
0.000535
0.000522
0.000555
0.000567
0.000552
0.000577
0.000580
0.000540
0.000570
0.000600
0.000540
0.000550
0.000550
0.000540
0.000527
0.000542
0.000545
0.000540
0.000535
0.000572
0.000527
0.000532
0.000542
0.000530
0.000487
0.000510
0.000527
0.000497
0.000540
0.000560
0.000525
0.000527
0.000562
0.000575
0.000537
0.000577
0.000590
0.000550
0.000540
0.000555
0.000507
0.000532
0.000530
0.000555
0.000515
0.000537
0.000585
0.000540
0.000532
0.000565
0.000512
0.000530
0.000565
0.000562
0.000525
0.000577
0.000577
0.000535
0.000537
0.000572
0.000577
0.000562
0.000617
0.000585
0.000517
0.000505
0.000505
0.000477
0.000525
0.000617
0.000590
0.000602
0.000592
0.000567
0.000492
0.000522
0.000577
0.000572
0.000560
0.000602
0.000532
0.000465
0.000472
0.000505
0.000485
0.000602
0.000640
0.000660
0.000662
0.000637
0.000537
0.000450
0.000457
0.000500
0.000455
0.000560
0.000605
0.000550
0.000560
0.000580
0.000542
0.000567
0.000605
0.000610
0.000507
0.000500
0.000475
0.000412
0.000442
0.000542
0.000537
0.000555
0.000582
0.000572
0.000502
0.000545
0.000567
0.000542
0.000620
0.000687
0.000622
0.000650
0.000572
0.000512
0.000432
0.000442
0.000457
0.000485
0.000542
0.000567
0.000517
0.000507
0.000505
0.000542
0.000587
0.000632
0.000682
0.000607
0.000507
0.000510
0.000407
0.000345
0.000400
0.000417
0.000387
0.000410
0.000435
0.000455
0.000540
0.000682
0.000752
0.000772
0.000800
0.000737
0.000650
0.000657
0.000697
0.000655
0.000645
0.000610
0.000545
0.000505
0.000470
0.000472
0.000495
0.000522
0.000547
0.000465
0.000400
0.000475
0.000440
0.000420
0.000490
0.000565
0.000562
0.000682
0.000770
0.000722
0.000710
0.000685
0.000580
0.000465
0.000335
0.000255
0.000155
0.000172
0.000207
0.000277
0.000372
0.000577
0.000680
0.000792
0.000895
0.001000
0.000997
0.001044
0.000942
0.000815
0.000580
0.000412
0.000192
-0.000018
-0.000162
-0.000292
-0.000510
-0.000730
-0.000977
-0.001267
-0.001582
-0.001822
-0.002154
-0.002484
-0.002751
-0.003094
-0.003463
-0.003743
-0.004006
-0.004173
-0.004303
-0.004258
-0.004126
-0.003921
-0.003648
-0.003358
-0.003114
-0.002896
-0.002684
-0.002471
-0.002376
-0.002164
-0.002104
-0.002104
-0.002134
-0.002209
-0.002366
-0.002499
-0.002569
-0.002491
-0.002396
-0.002229
-0.002162
-0.002099
-0.002037
-0.002007
-0.002012
-0.001989
-0.001959
-0.001827
-0.001744
-0.001614
-0.001559
-0.001569
-0.001592
-0.001699
-0.001764
-0.001794
-0.001727
-0.001637
-0.001559
-0.001409
-0.001354
-0.001307
-0.001299
-0.001274
-0.001364
-0.001394
-0.001449
-0.001487
-0.001539
-0.001477
-0.001462
-0.001334
-0.001132
-0.000967
-0.000845
-0.000700
-0.000620
-0.000640
-0.000712
-0.000755
-0.000935
-0.001057
-0.001234
-0.001332
-0.001372
-0.001352
-0.001329
-0.001277
-0.001164
-0.000955
-0.000827
-0.000725
-0.000585
-0.000472
-0.000460
-0.000407
-0.000432
-0.000580
-0.000710
-0.000862
-0.001037
-0.001164
-0.001234
-0.001197
-0.001227
-0.001110
-0.000957
-0.000855
-0.000720
-0.000527
-0.000422
-0.000337
-0.000237
-0.000215
-0.000312
-0.000342
-0.000440
-0.000572
-0.000740
-0.000767
-0.000867
-0.000977
-0.000992
-0.000935
-0.000980
-0.000917
-0.000762
-0.000685
-0.000590
-0.000430
-0.000355
-0.000320
-0.000277
-0.000277
-0.000365
-0.000430
-0.000487
-0.000602
-0.000755
-0.000737
-0.000792
-0.000802
-0.000760
-0.000652
-0.000672
-0.000627
-0.000540
-0.000565
-0.000625
-0.000555
-0.000517
-0.000562
-0.000507
-0.000512
-0.000547
-0.000557
-0.000540
-0.000485
-0.000447
-0.000437
-0.000447
-0.000467
-0.000497
-0.000490
-0.000540
-0.000547
-0.000515
-0.000502
-0.000585
-0.000552
-0.000542
-0.000545
-0.000542
-0.000460
-0.000430
-0.000417
-0.000365
-0.000367
-0.000377
-0.000380
-0.000390
-0.000397
-0.000510
-0.000490
-0.000557
-0.000565
-0.000545
-0.000492
-0.000465
-0.000367
-0.000347
-0.000302
-0.000235
-0.000202
-0.000172
-0.000130
-0.000145
-0.000155
-0.000212
-0.000257
-0.000292
-0.000345
-0.000380
-0.000402
-0.000465
-0.000505
-0.000530
-0.000500
-0.000500
-0.000430
-0.000390
-0.000272
-0.000175
-0.000082
0.000002
0.000030
0.000042
0.000002
-0.000065
-0.000117
-0.000205
-0.000337
-0.000417
-0.000542
-0.000635
-0.000635
-0.000670
-0.000625
-0.000592
-0.000475
-0.000380
-0.000287
-0.000187
-0.000132
-0.000072
-0.000020
-0.000008
-0.000092
-0.000125
-0.000205
-0.000312
-0.000382
-0.000432
-0.000440
-0.000487
-0.000475
-0.000435
-0.000387
-0.000312
-0.000225
-0.000135
-0.000040
0.000035
0.000067
0.000040
0.000012
-0.000028
-0.000090
-0.000172
-0.000187
-0.000295
-0.000360
-0.000425
-0.000462
-0.000525
-0.000495
-0.000425
-0.000337
-0.000262
-0.000127
-0.000075
-0.000023
0.000025
0.000060
0.000005
0.000002
-0.000067
-0.000137
-0.000230
-0.000260
-0.000325
-0.000332
-0.000325
-0.000272
-0.000280
-0.000257
-0.000167
-0.000137
-0.000160
-0.000135
-0.000130
-0.000147
-0.000157
-0.000165
-0.000215
-0.000212
-0.000220
-0.000255
-0.000250
-0.000190
-0.000170
-0.000125
-0.000115
-0.000048
-0.000085
-0.000060
-0.000082
-0.000070
-0.000095
-0.000137
-0.000160
-0.000197
-0.000190
-0.000152
-0.000182
-0.000117
-0.000125
-0.000080
-0.000070
-0.000020
-0.000015
-0.000020
-0.000050
-0.000055
-0.000117
-0.000175
-0.000200
-0.000207
-0.000237
-0.000187
-0.000157
-0.000110
-0.000070
0.000015
0.000037
0.000035
-0.000008
-0.000010
-0.000033
-0.000070
-0.000085
-0.000112
-0.000167
-0.000160
-0.000162
-0.000125
-0.000127
-0.000080
-0.000018
0.000055
0.000082
0.000110
0.000105
0.000102
0.000090
0.000047
-0.000008
0.000002
-0.000055
-0.000102
-0.000137
-0.000127
-0.000132
-0.000100
-0.000082
-0.000005
-0.000003
0.000035
0.000042
0.000050
0.000002
0.000005
-0.000013
-0.000048
-0.000130
-0.000165
-0.000240
-0.000232
-0.000220
-0.000185
-0.000135
-0.000087
-0.000023
0.000055
0.000085
0.000152
0.000140
0.000125
0.000082
0.000045
-0.000035
-0.000107
-0.000160
-0.000205
-0.000237
-0.000215
-0.000232
-0.000205
-0.000165
-0.000097
-0.000077
-0.000005
0.000050
0.000085
0.000127
0.000120
0.000090
0.000070
0.000015
-0.000000
-0.000070
-0.000092
-0.000080
-0.000087
-0.000100
-0.000035
-0.000015
0.000037
0.000097
0.000142
0.000102
0.000092
0.000052
0.000007
-0.000055
-0.000072
-0.000090
-0.000053
-0.000070
-0.000020
-0.000030
-0.000000
0.000040
0.000060
0.000092
0.000115
0.000072
0.000055
0.000035
0.000025
-0.000067
-0.000065
-0.000080
-0.000070
-0.000075
-0.000045
-0.000043
-0.000035
0.000025
0.000065
0.000107
0.000125
0.000150
0.000155
0.000132
0.000137
0.000125
0.000050
0.000012
0.000002
-0.000077
-0.000050
-0.000043
-0.000003
-0.000018
0.000040
0.000082
0.000105
0.000110
0.000147
0.000125
0.000087
0.000105
0.000062
0.000015
-0.000003
-0.000013
-0.000010
-0.000003
0.000050
0.000050
0.000092
0.000130
0.000187
0.000205
0.000210
0.000242
0.000245
0.000205
0.000200
0.000130
0.000055
0.000025
0.000010
-0.000030
-0.000010
0.000037
0.000080
0.000087
0.000135
0.000122
0.000132
0.000140
0.000122
0.000125
0.000107
0.000062
0.000065
0.000042
0.000050
0.000040
0.000042
0.000047
0.000052
0.000040
0.000060
0.000077
0.000067
0.000067
0.000102
0.000075
0.000080
0.000062
0.000055
-0.000020
-0.000025
0.000010
0.000027
0.000040
0.000065
0.000072
0.000122
0.000142
0.000192
0.000195
0.000240
0.000185
0.000150
0.000112
0.000085
0.000017
0.000010
0.000007
0.000022
-0.000010
0.000027
0.000050
0.000117
0.000122
0.000185
0.000220
0.000242
0.000242
0.000210
0.000137
0.000147
0.000110
0.000072
0.000057
0.000077
0.000010
0.000040
0.000037
0.000065
0.000067
0.000100
0.000127
0.000132
0.000145
0.000157
0.000125
0.000132
0.000137
0.000130
0.000065
0.000110
0.000107
0.000102
0.000147
0.000192
0.000182
0.000202
0.000225
0.000222
0.000180
0.000175
0.000110
0.000090
0.000080
0.000062
0.000062
0.000067
0.000070
0.000090
0.000102
0.000160
0.000187
0.000157
0.000182
0.000240
0.000200
0.000217
0.000242
0.000227
0.000212
0.000192
0.000137
0.000120
0.000105
0.000105
0.000080
0.000095
0.000145
0.000120
0.000107
0.000147
0.000135
0.000122
0.000127
0.000197
0.000127
0.000130
0.000137
0.000165
0.000127
0.000167
0.000172
0.000162
0.000135
0.000202
0.000182
0.000195
0.000167
0.000170
0.000137
0.000142
0.000155
0.000147
0.000192
0.000227
0.000157
0.000155
0.000157
0.000190
0.000100
0.000177
0.000157
0.000165
0.000170
0.000207
0.000185
0.000172
0.000192
0.000167
0.000112
0.000132
0.000137
0.000137
0.000095
0.000172
0.000170
0.000147
0.000207
0.000235
0.000197
0.000222
0.000250
0.000242
0.000227
0.000237
0.000207
0.000192
0.000160
0.000142
0.000102
0.000112
0.000115
0.000077
0.000050
0.000100
0.000105
0.000117
0.000150
0.000205
0.000197
0.000192
0.000240
0.000237
0.000202
0.000257
0.000217
0.000232
0.000257
0.000260
0.000225
0.000237
0.000225
0.000172
0.000157
0.000185
0.000182
0.000205
0.000220
0.000217
0.000205
0.000205
0.000227
0.000180
0.000185
0.000205
0.000192
0.000210
0.000197
0.000210
0.000155
0.000202
0.000192
0.000147
0.000110
0.000132
0.000110
0.000095
0.000080
0.000120
0.000075
0.000110
0.000132
0.000140
0.000160
0.000202
0.000205
0.000215
0.000272
0.000305
0.000250
0.000287
0.000237
0.000200
0.000130
0.000142
0.000127
0.000075
0.000132
0.000130
0.000142
0.000202
0.000222
0.000247
0.000240
0.000262
0.000222
0.000212
0.000235
0.000270
0.000195
0.000225
0.000207
0.000175
0.000147
0.000135
0.000130
0.000132
0.000152
0.000192
0.000145
0.000240
0.000225
0.000272
0.000262
0.000310
0.000285
0.000255
0.000267
0.000232
0.000187
0.000185
0.000177
0.000177
0.000150
0.000190
0.000160
0.000165
0.000197
0.000207
0.000167
0.000215
0.000197
0.000192
0.000230
0.000235
0.000250
0.000250
0.000260
0.000277
0.000225
0.000262
0.000225
0.000197
0.000177
0.000192
0.000197
0.000190
0.000227
0.000245
0.000195
0.000230
0.000230
0.000222
0.000235
0.000272
0.000247
0.000252
0.000252
0.000245
0.000212
0.000247
0.000232
0.000202
0.000185
0.000235
0.000235
0.000222
0.000272
0.000265
0.000215
0.000227
0.000227
0.000202
0.000205
0.000245
0.000225
0.000247
0.000247
0.000257
0.000217
0.000232
0.000235
0.000240
0.000212
0.000247
0.000212
0.000187
0.000200
0.000217
0.000197
0.000242
0.000240
0.000230
0.000237
0.000230
0.000235
0.000225
0.000220
0.000270
0.000227
0.000265
0.000285
0.000275
0.000270
0.000277
0.000252
0.000247
0.000260
0.000252
0.000220
0.000270
0.000232
0.000225
0.000192
0.000250
0.000200
0.000192
0.000197
0.000187
0.000152
0.000147
0.000150
0.000150
0.000125
0.000167
0.000212
0.000222
0.000245
0.000255
0.000257
0.000260
0.000242
0.000262
0.000262
0.000285
0.000260
0.000290
0.000287
0.000285
0.000262
0.000260
0.000275
0.000272
0.000270
0.000272
0.000245
0.000250
0.000255
0.000282
0.000232
0.000235
0.000225
0.000217
0.000210
0.000230
0.000227
0.000232
0.000225
0.000245
0.000235
0.000230
0.000257
0.000275
0.000287
0.000302
0.000320
0.000272
0.000275
0.000272
0.000250
0.000252
0.000232
0.000220
0.000210
0.000240
0.000227
0.000307
0.000305
0.000325
0.000305
0.000325
0.000302
0.000287
0.000287
0.000270
0.000237
0.000245
0.000245
0.000240
0.000212
0.000242
0.000262
0.000247
0.000260
0.000307
0.000280
0.000320
0.000332
0.000317
0.000345
0.000325
0.000335
0.000325
0.000317
0.000315
0.000315
0.000305
0.000280
0.000280
0.000252
0.000260
0.000242
0.000255
0.000272
0.000295
0.000272
0.000297
0.000277
0.000275
0.000230
0.000252
0.000277
0.000270
0.000267
0.000287
0.000272
0.000307
0.000255
0.000275
0.000247
0.000225
0.000210
0.000210
0.000217
0.000232
0.000210
0.000225
0.000232
0.000250
0.000275
0.000295
0.000290
0.000332
0.000290
0.000305
0.000312
0.000272
0.000272
0.000272
0.000280
0.000265
0.000252
0.000262
0.000215
0.000237
0.000205
0.000245
0.000232
0.000217
0.000225
0.000245
0.000232
0.000247
0.000285
0.000290
0.000285
0.000325
0.000305
0.000320
0.000325
0.000337
0.000317
0.000335
0.000322
0.000337
0.000297
0.000305
0.000280
0.000292
0.000262
0.000280
0.000257
0.000285
0.000287
0.000267
0.000280
0.000295
0.000262
0.000300
0.000295
0.000317
0.000320
0.000335
0.000315
0.000327
0.000285
0.000355
0.000322
0.000330
0.000345
0.000355
0.000327
0.000320
0.000295
0.000277
0.000272
0.000290
0.000270
0.000295
0.000282
0.000285
0.000265
0.000237
0.000262
0.000280
0.000267
0.000312
0.000302
0.000277
0.000265
0.000287
0.000260
0.000262
0.000265
0.000267
0.000257
0.000267
0.000272
0.000287
0.000295
0.000287
0.000335
0.000330
0.000327
0.000360
0.000322
0.000355
0.000372
0.000362
0.000315
0.000352
0.000312
0.000300
0.000295
0.000315
0.000287
0.000287
0.000315
0.000322
0.000305
0.000320
0.000272
0.000262
0.000275
0.000280
0.000260
0.000302
0.000305
0.000275
0.000280
0.000337
0.000292
0.000322
0.000335
0.000337
0.000317
0.000340
0.000315
0.000320
0.000297
0.000285
0.000247
0.000270
0.000247
0.000272
0.000280
0.000292
0.000290
0.000287
0.000280
0.000292
0.000240
0.000270
0.000270
0.000297
0.000290
0.000305
0.000312
0.000295
0.000282
0.000280
0.000262
0.000280
0.000267
0.000295
0.000257
0.000277
0.000297
0.000287
0.000287
0.000312
0.000302
0.000310
0.000335
0.000352
0.000320
0.000337
0.000340
0.000317
0.000310
0.000312
0.000277
0.000297
0.000307
0.000310
0.000260
0.000290
0.000317
0.000325
0.000307
0.000335
0.000317
0.000335
0.000340
0.000320
0.000300
0.000317
0.000287
0.000270
0.000280
0.000295
0.000270
0.000277
0.000295
0.000290
0.000272
0.000275
0.000317
0.000295
0.000307
0.000340
0.000292
0.000302
0.000347
0.000385
0.000365
0.000395
0.000372
0.000357
0.000345
0.000382
0.000332
0.000325
0.000350
0.000340
0.000312
0.000330
0.000335
0.000342
0.000315
0.000352
0.000330
0.000312
0.000335
0.000357
0.000342
0.000375
0.000362
0.000327
0.000347
0.000350
0.000322
0.000310
0.000332
0.000355
0.000327
0.000372
0.000347
0.000362
0.000320
0.000357
0.000337
0.000305
0.000325
0.000312
0.000310
0.000330
0.000335
0.000312
0.000337
0.000342
0.000310
0.000320
0.000320
0.000327
0.000307
0.000350
0.000352
0.000335
0.000350
0.000362
0.000337
0.000350
0.000385
0.000352
0.000347
0.000365
0.000340
0.000322
0.000325
0.000335
0.000335
0.000320
0.000370
0.000385
0.000355
0.000417
0.000390
0.000377
0.000372
0.000362
0.000370
0.000342
0.000327
0.000345
0.000290
0.000327
0.000300
0.000265
0.000287
0.000327
0.000312
0.000335
0.000335
0.000352
0.000292
0.000345
0.000397
0.000345
0.000312
0.000355
0.000285
0.000290
0.000312
0.000310
0.000265
0.000312
0.000315
0.000295
0.000295
0.000342
0.000330
0.000300
0.000335
0.000372
0.000287
0.000325
0.000355
0.000290
0.000295
0.000355
0.000317
0.000320
0.000367
0.000370
0.000317
0.000347
0.000322
0.000275
0.000282
0.000330
0.000320
0.000285
0.000315
0.000352
0.000310
0.000355
0.000392
0.000365
0.000380
0.000422
0.000430
0.000430
0.000435
0.000445
0.000382
0.000372
0.000377
0.000342
0.000320
0.000362
0.000307
0.000295
0.000317
0.000367
0.000292
0.000342
0.000390
0.000372
0.000340
0.000410
0.000397
0.000355
0.000375
0.000395
0.000342
0.000377
0.000365
0.000332
0.000332
0.000382
0.000365
0.000355
0.000382
0.000352
0.000310
0.000335
0.000375
0.000375
0.000322
0.000377
0.000375
0.000405
0.000395
0.000395
0.000392
0.000420
0.000427
0.000397
0.000425
0.000440
0.000392
0.000372
0.000390
0.000392
0.000342
0.000325
0.000370
0.000382
0.000337
0.000382
0.000362
0.000380
0.000400
0.000427
0.000407
0.000405
0.000445
0.000417
0.000402
0.000427
0.000415
0.000392
0.000377
0.000420
0.000322
0.000330
0.000360
0.000342
0.000347
0.000380
0.000325
0.000325
0.000352
0.000357
0.000320
0.000340
0.000372
0.000365
0.000362
0.000412
0.000382
0.000362
0.000380
0.000395
0.000357
0.000352
0.000380
0.000372
0.000357
0.000412
0.000397
0.000375
0.000407
0.000417
0.000377
0.000395
0.000402
0.000380
0.000390
0.000405
0.000390
0.000360
0.000362
0.000370
0.000312
0.000320
0.000322
0.000320
0.000300
0.000347
0.000357
0.000342
0.000365
0.000397
0.000347
0.000355
0.000347
0.000332
0.000332
0.000395
0.000365
0.000360
0.000345
0.000360
0.000325
0.000315
0.000355
0.000365
0.000315
0.000390
0.000387
0.000342
0.000362
0.000355
0.000342
0.000390
0.000385
0.000365
0.000367
0.000400
0.000375
0.000367
0.000390
0.000395
0.000347
0.000372
0.000385
0.000417
0.000352
0.000430
0.000415
0.000370
0.000395
0.000402
0.000382
0.000355
0.000410
0.000402
0.000380
0.000410
0.000415
0.000400
0.000355
0.000400
0.000380
0.000365
0.000375
0.000377
0.000342
0.000362
0.000362
0.000365
0.000360
0.000402
0.000365
0.000377
0.000425
0.000412
0.000397
0.000440
0.000437
0.000425
0.000402
0.000467
0.000405
0.000385
0.000400
0.000375
0.000322
0.000350
0.000350
0.000320
0.000325
0.000390
0.000382
0.000340
0.000382
0.000412
0.000355
0.000410
0.000450
0.000407
0.000392
0.000445
0.000385
0.000395
0.000390
0.000377
0.000362
0.000390
0.000400
0.000360
0.000350
0.000400
0.000365
0.000347
0.000392
0.000405
0.000362
0.000400
0.000377
0.000375
0.000362
0.000397
0.000380
0.000372
0.000380
0.000395
0.000360
0.000382
0.000372
0.000335
0.000300
0.000352
0.000335
0.000322
0.000370
0.000377
0.000345
0.000402
0.000385
0.000372
0.000362
0.000410
0.000395
0.000367
0.000395
0.000410
0.000355
0.000407
0.000407
0.000387
0.000372
0.000422
0.000387
0.000377
0.000390
0.000410
0.000392
0.000402
0.000420
0.000387
0.000407
0.000427
0.000402
0.000400
0.000372
0.000395
0.000347
0.000397
0.000407
0.000420
0.000402
0.000442
0.000405
0.000390
0.000372
0.000417
0.000390
0.000402
0.000392
0.000372
0.000377
0.000390
0.000410
0.000392
0.000400
0.000437
0.000387
0.000440
0.000440
0.000405
0.000422
0.000432
0.000432
0.000417
0.000382
0.000405
0.000355
0.000355
0.000362
0.000357
0.000357
0.000382
0.000352
0.000392
0.000410
0.000392
0.000380
0.000395
0.000410
0.000397
0.000367
0.000400
0.000372
0.000370
0.000340
0.000362
0.000347
0.000385
0.000375
0.000397
0.000385
0.000420
0.000380
0.000375
0.000380
0.000402
0.000367
0.000400
0.000417
0.000375
0.000340
0.000367
0.000362
0.000335
0.000375
0.000397
0.000410
0.000430
0.000465
0.000457
0.000440
0.000467
0.000450
0.000407
0.000422
0.000397
0.000365
0.000345
0.000397
0.000370
0.000377
0.000420
0.000410
0.000427
0.000442
0.000457
0.000402
0.000405
0.000402
0.000405
0.000405
0.000450
0.000415
0.000390
0.000430
0.000435
0.000392
0.000377
0.000387
0.000402
0.000385
0.000440
0.000392
0.000367
0.000377
0.000402
0.000347
0.000385
0.000427
0.000402
0.000395
0.000432
0.000437
0.000425
0.000425
0.000435
0.000442
0.000445
0.000427
0.000420
0.000377
0.000412
0.000395
0.000370
0.000367
0.000405
0.000357
0.000372
0.000390
0.000395
0.000382
0.000405
0.000435
0.000420
0.000447
0.000482
0.000430
0.000432
0.000447
0.000435
0.000392
0.000432
0.000400
0.000387
0.000405
0.000390
0.000390
0.000400
0.000427
0.000440
0.000397
0.000430
0.000437
0.000455
0.000450
0.000455
0.000420
0.000410
0.000440
0.000425
0.000390
0.000400
0.000410
0.000417
0.000400
0.000442
0.000427
0.000415
0.000437
0.000440
0.000407
0.000435
0.000422
0.000420
0.000405
0.000417
0.000420
0.000435
0.000452
0.000457
0.000415
0.000400
0.000412
0.000380
0.000357
0.000370
0.000380
0.000390
0.000397
0.000430
0.000402
0.000420
0.000427
0.000417
0.000410
0.000392
0.000382
0.000387
0.000387
0.000405
0.000375
0.000425
0.000417
0.000422
0.000417
0.000445
0.000432
0.000457
0.000480
0.000497
0.000467
0.000480
0.000475
0.000460
0.000432
0.000440
0.000395
0.000395
0.000367
0.000397
0.000365
0.000395
0.000405
0.000387
0.000417
0.000390
0.000382
0.000390
0.000375
0.000402
0.000372
0.000392
0.000410
0.000380
0.000377
0.000425
0.000417
0.000432
0.000447
0.000455
0.000450
0.000467
0.000452
0.000447
0.000427
0.000435
0.000420
0.000442
0.000430
0.000422
0.000410
0.000440
0.000422
0.000440
0.000435
0.000447
0.000467
0.000422
0.000415
0.000460
0.000405
0.000420
0.000422
0.000392
0.000387
0.000402
0.000410
0.000440
0.000435
0.000460
0.000455
0.000465
0.000465
0.000445
0.000435
0.000427
0.000400
0.000407
0.000407
0.000420
0.000380
0.000402
0.000417
0.000407
0.000415
0.000417
0.000417
0.000437
0.000422
0.000447
0.000430
0.000432
0.000427
0.000452
0.000405
0.000432
0.000405
0.000395
0.000382
0.000430
0.000410
0.000380
0.000377
0.000380
0.000347
0.000382
0.000402
0.000387
0.000420
0.000432
0.000432
0.000440
0.000422
0.000437
0.000425
0.000432
0.000447
0.000432
0.000390
0.000415
0.000390
0.000412
0.000395
0.000430
0.000417
0.000430
0.000442
0.000465
0.000455
0.000492
0.000465
0.000487
0.000485
0.000472
0.000432
0.000407
0.000425
0.000427
0.000377
0.000425
0.000415
0.000410
0.000420
0.000462
0.000430
0.000420
0.000407
0.000395
0.000375
0.000385
0.000417
0.000425
0.000405
0.000432
0.000422
0.000447
0.000435
0.000462
0.000430
0.000450
0.000447
0.000460
0.000447
0.000465
0.000402
0.000432
0.000422
0.000420
0.000422
0.000425
0.000415
0.000430
0.000415
0.000440
0.000452
0.000462
0.000457
0.000480
0.000465
0.000485
0.000455
0.000470
0.000455
0.000427
0.000435
0.000417
0.000435
0.000412
0.000422
0.000435
0.000417
0.000430
0.000417
0.000442
0.000425
0.000430
0.000445
0.000440
0.000377
0.000435
0.000427
0.000452
0.000460
0.000475
0.000460
0.000472
0.000435
0.000465
0.000455
0.000427
0.000462
0.000452
0.000427
0.000462
0.000440
0.000457
0.000442
0.000450
0.000442
0.000455
0.000467
0.000455
0.000445
0.000447
0.000472
0.000450
0.000435
0.000460
0.000412
0.000437
0.000442
0.000430
0.000407
0.000427
0.000417
0.000430
0.000455
0.000452
0.000437
0.000475
0.000482
0.000487
0.000467
0.000507
0.000472
0.000482
0.000462
0.000465
0.000430
0.000455
0.000425
0.000417
0.000430
0.000432
0.000457
0.000445
0.000435
0.000442
0.000445
0.000445
0.000445
0.000452
0.000440
0.000435
0.000412
0.000435
0.000420
0.000435
0.000417
0.000445
0.000430
0.000445
0.000435
0.000422
0.000425
0.000425
0.000437
0.000452
0.000430
0.000432
0.000442
0.000460
0.000432
0.000465
0.000437
0.000470
0.000452
0.000455
0.000465
0.000465
0.000450
0.000447
0.000437
0.000487
0.000470
0.000460
0.000482
0.000457
0.000460
0.000455
0.000460
0.000440
0.000457
0.000457
0.000422
0.000437
0.000425
0.000447
0.000435
0.000447
0.000430
0.000457
0.000442
0.000460
0.000470
0.000470
0.000465
0.000495
0.000432
0.000435
0.000420
0.000422
0.000432
0.000447
0.000410
0.000452
0.000457
0.000447
0.000467
0.000452
0.000487
0.000480
0.000457
0.000487
0.000470
0.000482
0.000465
0.000487
0.000450
0.000455
0.000445
0.000427
0.000435
0.000445
0.000432
0.000425
0.000400
0.000437
0.000430
0.000422
0.000452
0.000485
0.000452
0.000490
0.000485
0.000472
0.000462
0.000475
0.000410
0.000430
0.000407
0.000400
0.000397
0.000405
0.000410
0.000412
0.000425
0.000422
0.000422
0.000410
0.000430
0.000435
0.000442
0.000487
0.000477
0.000462
0.000490
0.000492
0.000472
0.000480
0.000450
0.000490
0.000442
0.000470
0.000460
0.000430
0.000445
0.000497
0.000455
0.000452
0.000452
0.000465
0.000442
0.000462
0.000460
0.000452
0.000435
0.000455
0.000450
0.000455
0.000472
0.000462
0.000475
0.000457
0.000482
0.000442
0.000395
0.000440
0.000405
0.000415
0.000430
0.000430
0.000432
0.000432
0.000417
0.000430
0.000422
0.000447
0.000430
0.000427
0.000447
0.000455
0.000455
0.000467
0.000455
0.000460
0.000430
0.000477
0.000492
0.000490
0.000455
0.000492
0.000475
0.000495
0.000495
0.000460
0.000477
0.000467
0.000472
0.000470
0.000455
0.000497
0.000480
0.000467
0.000457
0.000482
0.000442
0.000467
0.000482
0.000460
0.000465
0.000457
0.000425
0.000450
0.000460
0.000467
0.000457
0.000500
0.000455
0.000475
0.000470
0.000462
0.000442
0.000472
0.000447
0.000457
0.000417
0.000435
0.000447
0.000455
0.000460
0.000497
0.000485
0.000482
0.000495
0.000465
0.000442
0.000465
0.000425
0.000420
0.000445
0.000420
0.000447
0.000440
0.000430
0.000430
0.000407
0.000432
0.000412
0.000440
0.000420
0.000455
0.000437
0.000430
0.000457
0.000420
0.000422
0.000430
0.000395
0.000417
0.000422
0.000465
0.000455
0.000470
0.000467
0.000455
0.000422
0.000435
0.000442
0.000427
0.000467
0.000482
0.000452
0.000462
0.000462
0.000457
0.000455
0.000470
0.000465
0.000452
0.000485
0.000470
0.000465
0.000475
0.000432
0.000420
0.000405
0.000447
0.000432
0.000420
0.000425
0.000485
0.000460
0.000480
0.000480
0.000462
0.000440
0.000460
0.000437
0.000437
0.000430
0.000470
0.000457
0.000450
0.000482
0.000462
0.000432
0.000455
0.000420
0.000440
0.000440
0.000492
0.000460
0.000445
0.000467
0.000475
0.000450
0.000470
0.000462
0.000440
0.000445
0.000475
0.000465
0.000477
0.000475
0.000480
0.000452
0.000477
0.000495
0.000467
0.000477
0.000482
0.000480
0.000465
0.000502
0.000470
0.000462
0.000490
0.000475
0.000455
0.000455
0.000452
0.000440
0.000450
0.000432
0.000467
0.000427
0.000450
0.000477
0.000460
0.000435
0.000475
0.000417
0.000427
0.000470
0.000462
0.000442
0.000485
0.000462
0.000480
0.000445
0.000467
0.000472
0.000472
0.000485
0.000500
0.000470
0.000490
0.000485
0.000480
0.000455
0.000472
0.000472
0.000450
0.000462
0.000480
0.000457
0.000477
0.000445
0.000455
0.000445
0.000462
0.000455
0.000435
0.000455
0.000475
0.000437
0.000447
0.000442
0.000425
0.000402
0.000437
0.000410
0.000447
0.000452
0.000467
0.000472
0.000462
0.000465
0.000480
0.000455
0.000495
0.000470
0.000470
0.000442
0.000467
0.000470
0.000482
0.000505
0.000487
0.000485
0.000487
0.000477
0.000472
0.000470
0.000485
0.000445
0.000450
0.000445
0.000447
0.000420
0.000452
0.000442
0.000447
0.000450
0.000485
0.000482
0.000490
0.000485
0.000487
0.000460
0.000490
0.000467
0.000462
0.000495
0.000492
0.000430
0.000447
0.000437
0.000452
0.000450
0.000460
0.000487
0.000475
0.000482
0.000525
0.000492
0.000500
0.000512
0.000492
0.000475
0.000475
0.000455
0.000450
0.000467
0.000452
0.000440
0.000437
0.000452
0.000465
0.000460
0.000462
0.000482
0.000477
0.000432
0.000462
0.000485
0.000450
0.000465
0.000487
0.000452
0.000485
0.000445
0.000427
0.000450
0.000435
0.000450
0.000432
0.000417
0.000435
0.000427
0.000445
0.000435
0.000460
0.000457
0.000457
0.000480
0.000472
0.000462
0.000512
0.000482
0.000502
0.000477
0.000502
0.000502
0.000480
0.000452
0.000457
0.000420
0.000420
0.000425
0.000435
0.000445
0.000460
0.000452
0.000470
0.000477
0.000467
0.000462
0.000490
0.000485
0.000495
0.000475
0.000482
0.000487
0.000505
0.000447
0.000472
0.000492
0.000472
0.000477
0.000487
0.000452
0.000487
0.000455
0.000470
0.000495
0.000462
0.000467
0.000467
0.000435
0.000447
0.000437
0.000442
0.000462
0.000457
0.000457
0.000492
0.000485
0.000467
0.000480
0.000485
0.000477
0.000452
0.000460
0.000460
0.000487
0.000472
0.000485
0.000467
0.000452
0.000437
0.000447
0.000460
0.000472
0.000512
0.000477
0.000495
0.000520
0.000495
0.000502
0.000530
0.000517
0.000510
0.000472
0.000507
0.000485
0.000462
0.000467
0.000512
0.000455
0.000490
0.000525
0.000487
0.000495
0.000505
0.000477
0.000505
0.000507
0.000475
0.000475
0.000497
0.000475
0.000480
0.000462
0.000432
0.000465
0.000477
0.000482
0.000495
0.000497
0.000487
0.000482
0.000480
0.000447
0.000470
0.000487
0.000460
0.000472
0.000482
0.000475
0.000475
0.000485
0.000482
0.000467
0.000492
0.000482
0.000457
0.000462
0.000487
0.000442
0.000467
0.000460
0.000435
0.000415
0.000447
0.000420
0.000457
0.000450
0.000457
0.000447
0.000465
0.000462
0.000502
0.000465
0.000502
0.000502
0.000477
0.000492
0.000520
0.000497
0.000477
0.000510
0.000502
0.000487
0.000517
0.000485
0.000482
0.000455
0.000482
0.000497
0.000497
0.000487
0.000502
0.000460
0.000460
0.000480
0.000487
0.000482
0.000502
0.000475
0.000512
0.000487
0.000482
0.000527
0.000497
0.000497
0.000487
0.000472
0.000502
0.000495
0.000480
0.000487
0.000515
0.000455
0.000500
0.000507
0.000500
0.000527
0.000522
0.000490
0.000492
0.000452
0.000490
0.000472
0.000472
0.000477
0.000462
0.000440
0.000465
0.000440
0.000440
0.000462
0.000470
0.000462
0.000492
0.000480
0.000490
0.000460
0.000475
0.000477
0.000422
0.000427
0.000430
0.000442
0.000477
0.000440
0.000475
0.000482
0.000505
0.000512
0.000480
0.000487
0.000485
0.000460
0.000480
0.000477
0.000475
0.000457
0.000450
0.000475
0.000467
0.000480
0.000505
0.000485
0.000482
0.000492
0.000492
0.000477
0.000517
0.000502
0.000480
0.000472
0.000497
0.000452
0.000450
0.000482
0.000472
0.000467
0.000502
0.000492
0.000495
0.000510
0.000487
0.000492
0.000505
0.000485
0.000492
0.000465
0.000470
0.000452
0.000450
0.000455
0.000490
0.000462
0.000490
0.000487
0.000510
0.000482
0.000500
0.000487
0.000510
0.000505
0.000500
0.000497
0.000485
0.000480
0.000517
0.000482
0.000512
0.000485
0.000485
0.000447
0.000477
0.000435
0.000410
0.000430
0.000415
0.000435
0.000455
0.000432
0.000445
0.000457
0.000482
0.000482
0.000500
0.000497
0.000520
0.000497
0.000520
0.000472
0.000477
0.000475
0.000502
0.000482
0.000482
0.000472
0.000475
0.000455
0.000455
0.000477
0.000480
0.000502
0.000507
0.000520
0.000527
0.000510
0.000532
0.000490
0.000510
0.000497
0.000505
0.000525
0.000520
0.000495
0.000495
0.000490
0.000500
0.000512
0.000522
0.000500
0.000497
0.000480
0.000490
0.000487
0.000507
0.000497
0.000515
0.000517
0.000525
0.000525
0.000487
0.000482
0.000490
0.000462
0.000482
0.000505
0.000505
0.000487
0.000490
0.000482
0.000487
0.000462
0.000475
0.000477
0.000500
0.000470
0.000487
0.000440
0.000485
0.000460
0.000450
0.000435
0.000492
0.000467
0.000467
0.000482
0.000475
0.000465
0.000497
0.000470
0.000510
0.000500
0.000512
0.000480
0.000487
0.000507
0.000500
0.000447
0.000480
0.000470
0.000495
0.000470
0.000520
0.000485
0.000487
0.000490
0.000497
0.000475
0.000472
0.000500
0.000495
0.000452
0.000467
0.000465
0.000485
0.000487
0.000482
0.000520
0.000525
0.000507
0.000495
0.000475
0.000510
0.000485
0.000462
0.000485
0.000487
0.000455
0.000507
0.000485
0.000497
0.000490
0.000515
0.000490
0.000490
0.000495
0.000497
0.000475
0.000455
0.000490
0.000487
0.000482
0.000497
0.000482
0.000477
0.000480
0.000502
0.000487
0.000505
0.000502
0.000530
0.000497
0.000510
0.000517
0.000500
0.000477
0.000490
0.000515
0.000495
0.000490
0.000487
0.000472
0.000500
0.000435
0.000480
0.000477
0.000485
0.000492
0.000487
0.000480
0.000502
0.000462
0.000485
0.000510
0.000482
0.000460
0.000492
0.000467
0.000485
0.000480
0.000477
0.000485
0.000517
0.000527
0.000540
0.000517
0.000522
0.000512
0.000490
0.000507
0.000515
0.000465
0.000487
0.000495
0.000485
0.000480
0.000490
0.000482
0.000497
0.000497
0.000530
0.000512
0.000502
0.000515
0.000515
0.000492
0.000517
0.000495
0.000507
0.000487
0.000490
0.000467
0.000470
0.000460
0.000460
0.000447
0.000495
0.000490
0.000465
0.000487
0.000490
0.000485
0.000472
0.000477
0.000487
0.000477
0.000492
0.000462
0.000467
0.000490
0.000507
0.000467
0.000492
0.000485
0.000477
0.000457
0.000490
0.000465
0.000470
0.000460
0.000470
0.000465
0.000500
0.000480
0.000492
0.000487
0.000490
0.000502
0.000515
0.000517
0.000505
0.000477
0.000497
0.000497
0.000495
0.000470
0.000497
0.000485
0.000487
0.000480
0.000490
0.000450
0.000482
0.000452
0.000442
0.000487
0.000505
0.000480
0.000507
0.000487
0.000490
0.000487
0.000502
0.000492
0.000525
0.000492
0.000512
0.000490
0.000480
0.000507
0.000512
0.000495
0.000497
0.000477
0.000490
0.000487
0.000492
0.000485
0.000500
0.000507
0.000497
0.000455
0.000450
0.000475
0.000467
0.000462
0.000467
0.000492
0.000515
0.000490
0.000530
0.000497
0.000505
0.000515
0.000497
0.000492
0.000492
0.000475
0.000465
0.000482
0.000475
0.000465
0.000490
0.000482
0.000507
0.000492
0.000520
0.000532
0.000535
0.000500
0.000495
0.000502
0.000515
0.000535
0.000520
0.000507
0.000545
0.000492
0.000505
0.000495
0.000497
0.000482
0.000512
0.000532
0.000507
0.000520
0.000522
0.000507
0.000522
0.000490
0.000522
0.000450
0.000510
0.000485
0.000495
0.000515
0.000492
0.000472
0.000487
0.000490
0.000482
0.000470
0.000485
0.000487
0.000465
0.000455
0.000500
0.000462
0.000487
0.000490
0.000467
0.000487
0.000515
0.000495
0.000467
0.000490
0.000532
0.000487
0.000497
0.000495
0.000482
0.000500
0.000515
0.000507
0.000507
0.000460
0.000515
0.000497
0.000470
0.000510
0.000512
0.000497
0.000505
0.000505
0.000500
0.000485
0.000517
0.000485
0.000487
0.000492
0.000512
0.000480
0.000465
0.000465
0.000467
0.000437
0.000487
0.000470
0.000455
0.000505
0.000510
0.000445
0.000472
0.000455
0.000435
0.000460
0.000477
0.000467
0.000487
0.000455
0.000487
0.000460
0.000495
0.000487
0.000527
0.000467
0.000522
0.000522
0.000507
0.000522
0.000540
0.000505
0.000507
0.000532
0.000527
0.000475
0.000495
0.000495
0.000502
0.000517
0.000500
0.000495
0.000517
0.000530
0.000547
0.000507
0.000515
0.000522
0.000512
0.000515
0.000550
0.000505
0.000497
0.000515
0.000492
0.000480
0.000487
0.000480
0.000465
0.000432
0.000450
0.000457
0.000447
0.000482
0.000485
0.000467
0.000515
0.000510
0.000515
0.000505
0.000522
0.000510
0.000497
0.000492
0.000485
0.000495
0.000475
0.000457
0.000480
0.000452
0.000462
0.000450
0.000485
0.000490
0.000507
0.000490
0.000505
0.000490
0.000500
0.000490
0.000472
0.000485
0.000467
0.000450
0.000467
0.000487
0.000455
0.000447
0.000472
0.000502
0.000490
0.000490
0.000522
0.000510
0.000515
0.000517
0.000505
0.000495
0.000515
0.000482
0.000515
0.000500
0.000492
0.000492
0.000497
0.000510
0.000525
0.000470
0.000540
0.000525
0.000515
0.000492
0.000505
0.000475
0.000480
0.000497
0.000510
0.000490
0.000477
0.000505
0.000535
0.000492
0.000510
0.000490
0.000497
0.000487
0.000512
0.000497
0.000522
0.000500
0.000500
0.000502
0.000520
0.000510
0.000482
0.000517
0.000522
0.000495
0.000515
0.000497
0.000517
0.000480
0.000530
0.000512
0.000507
0.000495
0.000507
0.000490
0.000512
0.000502
0.000492
0.000505
0.000530
0.000477
0.000502
0.000532
0.000517
0.000540
0.000552
0.000527
0.000520
0.000532
0.000545
0.000500
0.000497
0.000520
0.000520
0.000510
0.000497
0.000482
0.000477
0.000480
0.000487
0.000467
0.000492
0.000487
0.000507
0.000482
0.000517
0.000492
0.000502
0.000510
0.000515
0.000520
0.000512
0.000520
0.000525
0.000520
0.000520
0.000492
0.000517
0.000460
0.000492
0.000470
0.000497
0.000485
0.000477
0.000452
0.000515
0.000465
0.000472
0.000475
0.000505
0.000490
0.000525
0.000535
0.000532
0.000517
0.000527
0.000500
0.000527
0.000495
0.000532
0.000495
0.000505
0.000505
0.000467
0.000500
0.000510
0.000487
0.000512
0.000507
0.000522
0.000527
0.000540
0.000527
0.000532
0.000530
0.000515
0.000515
0.000470
0.000470
0.000475
0.000457
0.000480
0.000482
0.000500
0.000460
0.000532
0.000510
0.000545
0.000540
0.000537
0.000537
0.000545
0.000502
0.000545
0.000482
0.000482
0.000487
0.000460
0.000462
0.000472
0.000462
0.000477
0.000495
0.000527
0.000487
0.000527
0.000527
0.000507
0.000487
0.000527
0.000517
0.000507
0.000495
0.000535
0.000495
0.000497
0.000500
0.000497
0.000492
0.000522
0.000505
0.000475
0.000485
0.000505
0.000467
0.000502
0.000490
0.000497
0.000497
0.000525
0.000520
0.000497
0.000517
0.000512
0.000490
0.000500
0.000535
0.000512
0.000517
0.000502
0.000507
0.000492
0.000507
0.000525
0.000475
0.000515
0.000530
0.000535
0.000522
0.000542
0.000520
0.000505
0.000520
0.000542
0.000485
0.000477
0.000525
0.000482
0.000495
0.000505
0.000502
0.000537
0.000517
0.000532
0.000500
0.000527
0.000505
0.000510
0.000510
0.000490
0.000500
0.000470
0.000455
0.000510
0.000482
0.000480
0.000482
0.000480
0.000460
0.000505
0.000505
0.000505
0.000512
0.000525
0.000507
0.000502
0.000532
0.000537
0.000507
0.000557
0.000520
0.000507
0.000502
0.000492
0.000460
0.000467
0.000460
0.000480
0.000485
0.000497
0.000522
0.000502
0.000517
0.000547
0.000517
0.000520
0.000525
0.000520
0.000495
0.000492
0.000512
0.000490
0.000457
0.000522
0.000482
0.000495
0.000515
0.000475
0.000470
0.000472
0.000470
0.000500
0.000462
0.000480
0.000500
0.000515
0.000540
0.000520
0.000467
0.000522
0.000520
0.000485
0.000497
0.000542
0.000500
0.000527
0.000515
0.000512
0.000470
0.000507
0.000490
0.000495
0.000477
0.000500
0.000480
0.000467
0.000492
0.000515
0.000487
0.000517
0.000507
0.000527
0.000497
0.000532
0.000525
0.000520
0.000537
0.000537
0.000512
0.000520
0.000515
0.000512
0.000527
0.000542
0.000520
0.000502
0.000522
0.000520
0.000472
0.000497
0.000505
0.000475
0.000480
0.000517
0.000477
0.000505
0.000497
0.000520
0.000470
0.000542
0.000515
0.000507
0.000517
0.000547
0.000517
0.000512
0.000525
0.000517
0.000470
0.000497
0.000505
0.000480
0.000477
0.000517
0.000457
0.000472
0.000517
0.000515
0.000480
0.000497
0.000540
0.000517
0.000492
0.000555
0.000512
0.000510
0.000537
0.000540
0.000490
0.000492
0.000527
0.000512
0.000515
0.000567
0.000505
0.000505
0.000535
0.000532
0.000507
0.000557
0.000535
0.000547
0.000505
0.000542
0.000515
0.000527
0.000512
0.000535
0.000515
0.000510
0.000547
0.000505
0.000500
0.000537
0.000482
0.000475
0.000482
0.000487
0.000452
0.000490
0.000522
0.000492
0.000495
0.000537
0.000497
0.000507
0.000530
0.000535
0.000500
0.000537
0.000550
0.000492
0.000525
0.000550
0.000512
0.000515
0.000537
0.000567
0.000490
0.000527
0.000510
0.000505
0.000512
0.000515
0.000540
0.000517
0.000527
0.000532
0.000512
0.000525
0.000507
0.000507
0.000520
0.000535
0.000515
0.000505
0.000495
0.000520
0.000462
0.000507
0.000545
0.000505
0.000490
0.000537
0.000527
0.000510
0.000517
0.000502
0.000462
0.000532
0.000512
0.000525
0.000540
0.000560
0.000515
0.000492
0.000547
0.000522
0.000497
0.000535
0.000520
0.000492
0.000485
0.000505
0.000510
0.000520
0.000505
0.000555
0.000502
0.000547
0.000547
0.000505
0.000515
0.000555
0.000525
0.000510
0.000555
0.000572
0.000520
0.000532
0.000540
0.000520
0.000495
0.000532
0.000512
0.000505
0.000525
0.000495
0.000467
0.000535
0.000497
0.000470
0.000472
0.000522
0.000460
0.000475
0.000520
0.000527
0.000492
0.000552
0.000547
0.000532
0.000540
0.000572
0.000537
0.000552
0.000532
0.000557
0.000507
0.000530
0.000562
0.000517
0.000505
0.000552
0.000507
0.000500
0.000547
0.000537
0.000532
0.000530
0.000557
0.000532
0.000522
0.000572
0.000540
0.000547
0.000557
0.000557
0.000490
0.000522
0.000532
0.000520
0.000492
0.000530
0.000495
0.000480
0.000517
0.000517
0.000477
0.000517
0.000512
0.000490
0.000485
0.000537
0.000537
0.000530
0.000520
0.000540
0.000495
0.000527
0.000532
0.000530
0.000505
0.000530
0.000525
0.000505
0.000510
0.000530
0.000502
0.000495
0.000515
0.000510
0.000492
0.000547
0.000492
0.000527
0.000527
0.000535
0.000520
0.000515
0.000522
0.000525
0.000500
0.000517
0.000515
0.000515
0.000512
0.000515
0.000515
0.000492
0.000500
0.000495
0.000442
0.000505
0.000502
0.000490
0.000495
0.000522
0.000505
0.000517
0.000545
0.000500
0.000510
0.000532
0.000495
0.000520
0.000540
0.000542
0.000487
0.000515
0.000522
0.000502
0.000505
0.000542
0.000520
0.000515
0.000522
0.000542
0.000500
0.000510
0.000510
0.000532
0.000507
0.000520
0.000497
0.000505
0.000522
0.000552
0.000480
0.000515
0.000522
0.000507
0.000507
0.000542
0.000505
0.000497
0.000510
0.000537
0.000480
0.000537
0.000537
0.000532
0.000530
0.000527
0.000520
0.000520
0.000520
0.000525
0.000490
0.000495
0.000510
0.000495
0.000467
0.000510
0.000510
0.000492
0.000515
0.000550
0.000515
0.000522
0.000552
0.000542
0.000505
0.000542
0.000515
0.000500
0.000520
0.000530
0.000502
0.000527
0.000527
0.000515
0.000485
0.000532
0.000500
0.000502
0.000510
0.000525
0.000510
0.000525
0.000507
0.000527
0.000492
0.000532
0.000545
0.000502
0.000527
0.000530
0.000512
0.000517
0.000535
0.000515
0.000515
0.000505
0.000510
0.000530
0.000490
0.000545
0.000502
0.000520
0.000522
0.000525
0.000485
0.000510
0.000502
0.000512
0.000505
0.000537
0.000490
0.000495
0.000512
0.000512
0.000475
0.000517
0.000505
0.000485
0.000447
0.000492
0.000445
0.000482
0.000510
0.000510
0.000485
0.000522
0.000530
0.000495
0.000482
0.000535
0.000510
0.000512
0.000527
0.000547
0.000507
0.000542
0.000515
0.000502
0.000507
0.000502
0.000482
0.000510
0.000515
0.000500
0.000495
0.000535
0.000535
0.000535
0.000515
0.000535
0.000522
0.000520
0.000515
0.000522
0.000515
0.000515
0.000505
0.000505
0.000502
0.000530
0.000532
0.000525
0.000545
0.000527
0.000505
0.000545
0.000515
0.000517
0.000507
0.000550
0.000525
0.000505
0.000537
0.000525
0.000510
0.000537
0.000527
0.000547
0.000505
0.000510
0.000512
0.000532
0.000520
0.000537
0.000520
0.000512
0.000535
0.000517
0.000510
0.000540
0.000520
0.000512
0.000530
0.000537
0.000530
0.000537
0.000535
0.000507
0.000500
0.000527
0.000487
0.000515
0.000520
0.000510
0.000507
0.000522
0.000497
0.000485
0.000485
0.000532
0.000482
0.000517
0.000522
0.000527
0.000507
0.000532
0.000500
0.000500
0.000485
0.000510
0.000485
0.000497
0.000500
0.000517
0.000487
0.000532
0.000527
0.000530
0.000527
0.000557
0.000520
0.000540
0.000527
0.000552
0.000532
0.000515
0.000535
0.000512
0.000492
0.000510
0.000502
0.000512
0.000505
0.000525
0.000512
0.000520
0.000520
0.000517
0.000507
0.000505
0.000490
0.000510
0.000482
0.000495
0.000497
0.000512
0.000522
0.000510
0.000500
0.000517
0.000517
0.000530
0.000510
0.000527
0.000537
0.000542
0.000522
0.000547
0.000537
0.000542
0.000527
0.000542
0.000535
0.000517
0.000522
0.000520
0.000520
0.000547
0.000502
0.000525
0.000515
0.000517
0.000487
0.000527
0.000510
0.000522
0.000522
0.000537
0.000545
0.000555
0.000525
0.000537
0.000517
0.000525
0.000525
0.000527
0.000532
0.000525
0.000512
0.000522
0.000495
0.000547
0.000527
0.000545
0.000520
0.000557
0.000547
0.000545
0.000535
0.000517
0.000517
0.000537
0.000530
0.000555
0.000520
0.000540
0.000515
0.000527
0.000505
0.000530
0.000505
0.000520
0.000502
0.000522
0.000495
0.000515
0.000530
0.000512
0.000515
0.000537
0.000507
0.000532
0.000525
0.000507
0.000500
0.000500
0.000517
0.000535
0.000510
0.000545
0.000550
0.000517
0.000520
0.000530
0.000500
0.000510
0.000520
0.000492
0.000492
0.000507
0.000502
0.000507
0.000515
0.000520
0.000487
0.000507
0.000515
0.000517
0.000520
0.000537
0.000535
0.000542
0.000510
0.000557
0.000525
0.000540
0.000552
0.000552
0.000532
0.000490
0.000525
0.000520
0.000495
0.000480
0.000465
0.000477
0.000502
0.000530
0.000500
0.000517
0.000532
0.000545
0.000525
0.000542
0.000545
0.000537
0.000535
0.000542
0.000557
0.000532
0.000512
0.000557
0.000517
0.000542
0.000535
0.000530
0.000542
0.000555
0.000532
0.000517
0.000510
0.000530
0.000487
0.000522
0.000517
0.000525
0.000492
0.000535
0.000560
0.000532
0.000522
0.000565
0.000522
0.000537
0.000562
0.000550
0.000555
0.000565
0.000540
0.000515
0.000515
0.000525
0.000507
0.000522
0.000502
0.000542
0.000505
0.000550
0.000535
0.000532
0.000527
0.000515
0.000522
0.000535
0.000552
0.000540
0.000500
0.000522
0.000512
0.000515
0.000522
0.000505
0.000512
0.000525
0.000525
0.000537
0.000497
0.000527
0.000525
0.000507
0.000485
0.000517
0.000487
0.000507
0.000512
0.000525
0.000515
0.000530
0.000552
0.000542
0.000515
0.000505
0.000502
0.000505
0.000520
0.000532
0.000530
0.000532
0.000520
0.000535
0.000535
0.000545
0.000545
0.000530
0.000512
0.000530
0.000542
0.000557
0.000540
0.000550
0.000520
0.000512
0.000502
0.000495
0.000495
0.000505
0.000487
0.000500
0.000495
0.000502
0.000510
0.000510
0.000490
0.000510
0.000525
0.000495
0.000482
0.000495
0.000522
0.000500
0.000497
0.000555
0.000505
0.000490
0.000530
0.000505
0.000515
0.000507
0.000497
t0(sec) = 0.000000E+0
dt(sec) = 4.000000E-10
F4:INSP "
DESCRIPTOR_NAME    : WAVEDESC           
TEMPLATE_NAME      : LECROY_2_3         
COMM_TYPE          : word               
COMM_ORDER         : HIFIRST            
WAVE_DESCRIPTOR    : 346                
USER_TEXT          : 0                  
RES_DESC1          : 0                  
TRIGTIME_ARRAY     : 0                  
RIS_TIME_ARRAY     : 0                  
RES_ARRAY1         : 0                  
WAVE_ARRAY_1       : 9932               
WAVE_ARRAY_2       : 0                  
RES_ARRAY2         : 0                  
RES_ARRAY3         : 0                  
INSTRUMENT_NAME    : LECROYHDO6104      
INSTRUMENT_NUMBER  : 6308               
TRACE_LABEL        :                    
RESERVED1          : 4966               
RESERVED2          : 0                  
WAVE_ARRAY_COUNT   : 4966               
PNTS_PER_SCREEN    : 5000               
FIRST_VALID_PNT    : 0                  
LAST_VALID_PNT     : 4965               
FIRST_POINT        : 0                  
SPARSING_FACTOR    : 1                  
SEGMENT_INDEX      : 0                  
SUBARRAY_COUNT     : 1                  
SWEEPS_PER_ACQ     : 200                
POINTS_PER_PAIR    : 0                  
PAIR_OFFSET        : 0                  
VERTICAL_GAIN      : 2.6238e-006        
VERTICAL_OFFSET    : 6.8001e-002        
MAX_VALUE          : 2.7366e+004        
MIN_VALUE          : 1.2377e+004        
NOMINAL_BITS       : 16                 
NOM_SUBARRAY_COUNT : 1                  
HORIZ_INTERVAL     : 4.0000e-010        
HORIZ_OFFSET       : -2.00000000e-007   
PIXEL_OFFSET       : -2.14000000e-007   
VERTUNIT           : Unit Name = V
HORUNIT            : Unit Name = S
HORIZ_UNCERTAINTY  : 1.0000e-012        
TRIGGER_TIME       : Date = APR 17, 2024, Time = 19:23:40.493222543
ACQ_DURATION       : 9.9989e+000        
RECORD_TYPE        : single_sweep       
PROCESSING_DONE    : no_processing      
RESERVED5          : 0                  
RIS_SWEEPS         : 1                  
TIMEBASE           : 200_ns/div         
VERT_COUPLING      : DC_50_Ohms         
PROBE_ATT          : 1.0000e+000        
FIXED_VERT_GAIN    : 5_mV/div           
BANDWIDTH_LIMIT    : off                
VERTICAL_VERNIER   : 1.0000e+000        
ACQ_VERT_OFFSET    : 0.0000e+000        
WAVE_SOURCE        : UNKNOWN            
"
0.000638
0.000638
0.000674
0.000617
0.000648
0.000651
0.000614
0.000619
0.000590
0.000598
0.000645
0.000593
0.000624
0.000601
0.000624
0.000624
0.000632
0.000645
0.000645
0.000624
0.000643
0.000614
0.000645
0.000630
0.000635
0.000638
0.000624
0.000617
0.000596
0.000577
0.000598
0.000635
0.000611
0.000630
0.000635
0.000653
0.000627
0.000638
0.000643
0.000609
0.000632
0.000619
0.000630
0.000627
0.000656
0.000635
0.000635
0.000635
0.000658
0.000651
0.000635
0.000611
0.000638
0.000617
0.000624
0.000609
0.000617
0.000630
0.000627
0.000601
0.000627
0.000609
0.000606
0.000624
0.000609
0.000609
0.000638
0.000638
0.000627
0.000643
0.000651
0.000624
0.000614
0.000585
0.000622
0.000596
0.000598
0.000601
0.000614
0.000617
0.000627
0.000622
0.000643
0.000603
0.000617
0.000638
0.000632
0.000601
0.000559
0.000530
0.000561
0.000603
0.000561
0.000606
0.000624
0.000614
0.000640
0.000619
0.000643
0.000601
0.000614
0.000601
0.000609
0.000617
0.000617
0.000593
0.000569
0.000551
0.000575
0.000611
0.000622
0.000619
0.000651
0.000632
0.000632
0.000617
0.000614
0.000614
0.000635
0.000606
0.000653
0.000619
0.000627
0.000651
0.000627
0.000624
0.000651
0.000648
0.000624
0.000645
0.000648
0.000627
0.000627
0.000609
0.000614
0.000614
0.000611
0.000622
0.000658
0.000648
0.000640
0.000669
0.000658
0.000648
0.000648
0.000627
0.000632
0.000598
0.000627
0.000603
0.000611
0.000543
0.000522
0.000559
0.000593
0.000617
0.000630
0.000632
0.000658
0.000606
0.000656
0.000638
0.000622
0.000622
0.000648
0.000630
0.000627
0.000638
0.000664
0.000601
0.000630
0.000590
0.000611
0.000603
0.000601
0.000575
0.000582
0.000622
0.000603
0.000611
0.000666
0.000624
0.000624
0.000640
0.000601
0.000564
0.000575
0.000627
0.000614
0.000619
0.000651
0.000656
0.000627
0.000635
0.000666
0.000622
0.000614
0.000617
0.000614
0.000585
0.000572
0.000593
0.000614
0.000606
0.000627
0.000585
0.000624
0.000609
0.000630
0.000614
0.000643
0.000651
0.000651
0.000653
0.000677
0.000609
0.000601
0.000609
0.000617
0.000596
0.000619
0.000603
0.000609
0.000632
0.000619
0.000619
0.000638
0.000627
0.000624
0.000601
0.000614
0.000590
0.000588
0.000630
0.000645
0.000635
0.000664
0.000593
0.000577
0.000556
0.000593
0.000540
0.000533
0.000572
0.000588
0.000575
0.000575
0.000603
0.000596
0.000585
0.000546
0.000577
0.000585
0.000548
0.000609
0.000643
0.000627
0.000598
0.000619
0.000653
0.000635
0.000611
0.000601
0.000601
0.000627
0.000596
0.000624
0.000635
0.000606
0.000619
0.000624
0.000603
0.000596
0.000596
0.000619
0.000609
0.000640
0.000638
0.000648
0.000611
0.000596
0.000603
0.000619
0.000609
0.000648
0.000622
0.000630
0.000651
0.000630
0.000638
0.000603
0.000619
0.000630
0.000619
0.000598
0.000564
0.000588
0.000582
0.000609
0.000596
0.000624
0.000622
0.000619
0.000643
0.000648
0.000617
0.000590
0.000567
0.000564
0.000577
0.000630
0.000619
0.000619
0.000611
0.000580
0.000546
0.000551
0.000601
0.000603
0.000556
0.000601
0.000606
0.000611
0.000651
0.000653
0.000619
0.000577
0.000643
0.000643
0.000635
0.000619
0.000632
0.000632
0.000614
0.000614
0.000611
0.000624
0.000617
0.000606
0.000593
0.000596
0.000606
0.000585
0.000627
0.000622
0.000619
0.000601
0.000598
0.000590
0.000564
0.000593
0.000619
0.000596
0.000619
0.000656
0.000611
0.000622
0.000627
0.000624
0.000617
0.000630
0.000614
0.000619
0.000619
0.000632
0.000617
0.000588
0.000624
0.000614
0.000514
0.000514
0.000567
0.000556
0.000590
0.000606
0.000643
0.000635
0.000622
0.000645
0.000632
0.000651
0.000596
0.000596
0.000598
0.000606
0.000577
0.000580
0.000582
0.000498
0.000512
0.000543
0.000535
0.000601
0.000614
0.000630
0.000590
0.000606
0.000635
0.000635
0.000577
0.000622
0.000596
0.000588
0.000614
0.000643
0.000632
0.000643
0.000603
0.000645
0.000593
0.000624
0.000640
0.000640
0.000590
0.000611
0.000567
0.000593
0.000603
0.000645
0.000635
0.000658
0.000658
0.000651
0.000590
0.000569
0.000564
0.000548
0.000564
0.000632
0.000672
0.000679
0.000700
0.000664
0.000653
0.000614
0.000546
0.000506
0.000559
0.000606
0.000575
0.000551
0.000577
0.000593
0.000596
0.000635
0.000685
0.000661
0.000695
0.000724
0.000648
0.000651
0.000656
0.000614
0.000645
0.000643
0.000609
0.000582
0.000548
0.000580
0.000580
0.000635
0.000677
0.000682
0.000656
0.000593
0.000527
0.000485
0.000533
0.000601
0.000645
0.000685
0.000674
0.000679
0.000651
0.000708
0.000756
0.000763
0.000737
0.000700
0.000559
0.000451
0.000428
0.000446
0.000512
0.000527
0.000483
0.000425
0.000464
0.000577
0.000609
0.000753
0.000903
0.000910
0.000861
0.000774
0.000611
0.000493
0.000433
0.000443
0.000388
0.000365
0.000346
0.000357
0.000344
0.000401
0.000485
0.000677
0.000798
0.000903
0.000918
0.000832
0.000784
0.000716
0.000666
0.000653
0.000593
0.000464
0.000352
0.000160
0.000144
0.000294
0.000509
0.000745
0.000931
0.001057
0.000973
0.000847
0.000842
0.000819
0.000742
0.000732
0.000706
0.000535
0.000409
0.000349
0.000328
0.000373
0.000501
0.000632
0.000679
0.000661
0.000672
0.000735
0.000790
0.000868
0.000897
0.000853
0.000748
0.000551
0.000304
0.000037
-0.000318
-0.000661
-0.001118
-0.001936
-0.003314
-0.004988
-0.006604
-0.008352
-0.010128
-0.011629
-0.013022
-0.014882
-0.017183
-0.018910
-0.020361
-0.021562
-0.021282
-0.019878
-0.019576
-0.019763
-0.018928
-0.018128
-0.018403
-0.017816
-0.016273
-0.016412
-0.017438
-0.016706
-0.015696
-0.016231
-0.016412
-0.015457
-0.015168
-0.015349
-0.014292
-0.013080
-0.013497
-0.014006
-0.013137
-0.012295
-0.012222
-0.011369
-0.010167
-0.010448
-0.011566
-0.011285
-0.010566
-0.011049
-0.011469
-0.010634
-0.010217
-0.010508
-0.010054
-0.009236
-0.009496
-0.010186
-0.009745
-0.008853
-0.009023
-0.009454
-0.009519
-0.010047
-0.010676
-0.010419
-0.009986
-0.009813
-0.009737
-0.009461
-0.009123
-0.008921
-0.008761
-0.008394
-0.008483
-0.008737
-0.008724
-0.008785
-0.008790
-0.008756
-0.009131
-0.009598
-0.009501
-0.009238
-0.008934
-0.008404
-0.007966
-0.008094
-0.008562
-0.008383
-0.007641
-0.007362
-0.007470
-0.007572
-0.007648
-0.007711
-0.007654
-0.007551
-0.007614
-0.007730
-0.007906
-0.007746
-0.007158
-0.006636
-0.006764
-0.007092
-0.007037
-0.006817
-0.006940
-0.007147
-0.007166
-0.007079
-0.006804
-0.006407
-0.006541
-0.007042
-0.007037
-0.006701
-0.006565
-0.006381
-0.005977
-0.005765
-0.005814
-0.005746
-0.005712
-0.006232
-0.006964
-0.007153
-0.007087
-0.007365
-0.007294
-0.006439
-0.005938
-0.006116
-0.005938
-0.005416
-0.005106
-0.005169
-0.005568
-0.005977
-0.006237
-0.006224
-0.006056
-0.006027
-0.006171
-0.005927
-0.005626
-0.005586
-0.005597
-0.005484
-0.005473
-0.005862
-0.006053
-0.005620
-0.005557
-0.005891
-0.005736
-0.005492
-0.005875
-0.005932
-0.005374
-0.005012
-0.005182
-0.005208
-0.005059
-0.005221
-0.005447
-0.005224
-0.004988
-0.005132
-0.005132
-0.004928
-0.005030
-0.005332
-0.005536
-0.005736
-0.006077
-0.006121
-0.005547
-0.005292
-0.005746
-0.005623
-0.004938
-0.005059
-0.005644
-0.005381
-0.004649
-0.004405
-0.004413
-0.004356
-0.004500
-0.004888
-0.004744
-0.004447
-0.004773
-0.005004
-0.004642
-0.004521
-0.004951
-0.005392
-0.005521
-0.005269
-0.004880
-0.004639
-0.004458
-0.004581
-0.004699
-0.004374
-0.004332
-0.005064
-0.005712
-0.005489
-0.005043
-0.004712
-0.004657
-0.004552
-0.004342
-0.004203
-0.004164
-0.004293
-0.004565
-0.004524
-0.004211
-0.004395
-0.004875
-0.004865
-0.004421
-0.004424
-0.004760
-0.004710
-0.004605
-0.004938
-0.004830
-0.004125
-0.004028
-0.004445
-0.004332
-0.004148
-0.004363
-0.004686
-0.004589
-0.004188
-0.004211
-0.004684
-0.004935
-0.004838
-0.004812
-0.004875
-0.004854
-0.004844
-0.004941
-0.004954
-0.004883
-0.004791
-0.004510
-0.004259
-0.004190
-0.004238
-0.004238
-0.004196
-0.004175
-0.004282
-0.004453
-0.004707
-0.004736
-0.004319
-0.003949
-0.003812
-0.003692
-0.003828
-0.004007
-0.003983
-0.003970
-0.004127
-0.004033
-0.003676
-0.003477
-0.003492
-0.003238
-0.003075
-0.003463
-0.003765
-0.003561
-0.003424
-0.003529
-0.003369
-0.003240
-0.003466
-0.003694
-0.003812
-0.003944
-0.003789
-0.003411
-0.003393
-0.003603
-0.003595
-0.003645
-0.004051
-0.004350
-0.004122
-0.004001
-0.004067
-0.004064
-0.003852
-0.003710
-0.003791
-0.004146
-0.004279
-0.003857
-0.003366
-0.003162
-0.003314
-0.003747
-0.004109
-0.004138
-0.003860
-0.003563
-0.003440
-0.003831
-0.004075
-0.003886
-0.003574
-0.003571
-0.003757
-0.003613
-0.003172
-0.002981
-0.002960
-0.002983
-0.003112
-0.003330
-0.003679
-0.003763
-0.003458
-0.003429
-0.003511
-0.003377
-0.003251
-0.003435
-0.003490
-0.003335
-0.003296
-0.003721
-0.004062
-0.003933
-0.003875
-0.004001
-0.003760
-0.003261
-0.003015
-0.003094
-0.003149
-0.002923
-0.002731
-0.002860
-0.003067
-0.003031
-0.002907
-0.002944
-0.002999
-0.003259
-0.003744
-0.004209
-0.004201
-0.003721
-0.003280
-0.003136
-0.003193
-0.003046
-0.002810
-0.002884
-0.003070
-0.002957
-0.002878
-0.002907
-0.003091
-0.003398
-0.003553
-0.003495
-0.003345
-0.003432
-0.003443
-0.003267
-0.003214
-0.003285
-0.003314
-0.003264
-0.003309
-0.003469
-0.003403
-0.003411
-0.003513
-0.003382
-0.003036
-0.003017
-0.003324
-0.003597
-0.003587
-0.003351
-0.003267
-0.003094
-0.002595
-0.002464
-0.002907
-0.003416
-0.003466
-0.003416
-0.003550
-0.003799
-0.003757
-0.003587
-0.003054
-0.002629
-0.002802
-0.003157
-0.003149
-0.002897
-0.003112
-0.003311
-0.003017
-0.002734
-0.002658
-0.002608
-0.002731
-0.003193
-0.003227
-0.002960
-0.002792
-0.002850
-0.002852
-0.002813
-0.002970
-0.002936
-0.002606
-0.002472
-0.002899
-0.003136
-0.002831
-0.002600
-0.002737
-0.002983
-0.002965
-0.002970
-0.003088
-0.002991
-0.002776
-0.002844
-0.002794
-0.002306
-0.001950
-0.002099
-0.002107
-0.001808
-0.001803
-0.002133
-0.002215
-0.002204
-0.002522
-0.002868
-0.002941
-0.003133
-0.003282
-0.003057
-0.002871
-0.002962
-0.002941
-0.002742
-0.002726
-0.002944
-0.002871
-0.002692
-0.002718
-0.002915
-0.003044
-0.002800
-0.002973
-0.003264
-0.003080
-0.002918
-0.003049
-0.003078
-0.002868
-0.002894
-0.002847
-0.002445
-0.002178
-0.002511
-0.002813
-0.002718
-0.002621
-0.002587
-0.002472
-0.002561
-0.002907
-0.003007
-0.002697
-0.002524
-0.002592
-0.002587
-0.002750
-0.003369
-0.003700
-0.003374
-0.002871
-0.002844
-0.002734
-0.002406
-0.002498
-0.002731
-0.002519
-0.002320
-0.002532
-0.002716
-0.002493
-0.002233
-0.002083
-0.001761
-0.001488
-0.001821
-0.002322
-0.002524
-0.002587
-0.002797
-0.002905
-0.002771
-0.002590
-0.002522
-0.002485
-0.002503
-0.002435
-0.002304
-0.002217
-0.002388
-0.002766
-0.003023
-0.002826
-0.002545
-0.002443
-0.002409
-0.002183
-0.002052
-0.002123
-0.002293
-0.002361
-0.002354
-0.002367
-0.002385
-0.002314
-0.002167
-0.002073
-0.001968
-0.002005
-0.002262
-0.002516
-0.002571
-0.002448
-0.002327
-0.002448
-0.002666
-0.002781
-0.002758
-0.002632
-0.002556
-0.002556
-0.002592
-0.002564
-0.002443
-0.002375
-0.002382
-0.002396
-0.002469
-0.002419
-0.002390
-0.002346
-0.002251
-0.002254
-0.002645
-0.002970
-0.002931
-0.003088
-0.003091
-0.002671
-0.002236
-0.002199
-0.002241
-0.002007
-0.001926
-0.002028
-0.001978
-0.001973
-0.002283
-0.002490
-0.002304
-0.001926
-0.001761
-0.001994
-0.002173
-0.002078
-0.001850
-0.001816
-0.001955
-0.001942
-0.002096
-0.002472
-0.002621
-0.002317
-0.002099
-0.002472
-0.003049
-0.002800
-0.002246
-0.002257
-0.002257
-0.001706
-0.001525
-0.002070
-0.002598
-0.002453
-0.002159
-0.002096
-0.002112
-0.002052
-0.001989
-0.002070
-0.002186
-0.002178
-0.002167
-0.002201
-0.002175
-0.002089
-0.001784
-0.001648
-0.001950
-0.002346
-0.002293
-0.002123
-0.002207
-0.002385
-0.002411
-0.002317
-0.002372
-0.002692
-0.002850
-0.002658
-0.002477
-0.002564
-0.002666
-0.002427
-0.002188
-0.002094
-0.001782
-0.001525
-0.001779
-0.002196
-0.002367
-0.002325
-0.002603
-0.002852
-0.002540
-0.002070
-0.002099
-0.002236
-0.001918
-0.001645
-0.001863
-0.002157
-0.002131
-0.002039
-0.002217
-0.002343
-0.002215
-0.002243
-0.002257
-0.002076
-0.002015
-0.002162
-0.002167
-0.001952
-0.001887
-0.002002
-0.001981
-0.001999
-0.002251
-0.002283
-0.001997
-0.001981
-0.002128
-0.002141
-0.001997
-0.001816
-0.001808
-0.001876
-0.001653
-0.001593
-0.001876
-0.001766
-0.001469
-0.001485
-0.001737
-0.001637
-0.001359
-0.001399
-0.001572
-0.001438
-0.001464
-0.001902
-0.002107
-0.001981
-0.001808
-0.001973
-0.002335
-0.002432
-0.002438
-0.002351
-0.002264
-0.002285
-0.002327
-0.002359
-0.002241
-0.002015
-0.001821
-0.001805
-0.001944
-0.002107
-0.002091
-0.001965
-0.002081
-0.002057
-0.001824
-0.001797
-0.002178
-0.002679
-0.002721
-0.002466
-0.002188
-0.001981
-0.001758
-0.001674
-0.001703
-0.001561
-0.001459
-0.001490
-0.001635
-0.001664
-0.001740
-0.001876
-0.002065
-0.002076
-0.001981
-0.001839
-0.001776
-0.001944
-0.002018
-0.001774
-0.001535
-0.001451
-0.001404
-0.001385
-0.001585
-0.001766
-0.001894
-0.001829
-0.001763
-0.001708
-0.001585
-0.001593
-0.001758
-0.001989
-0.002112
-0.001868
-0.001608
-0.001498
-0.001485
-0.001433
-0.001375
-0.001561
-0.001884
-0.001908
-0.001624
-0.001514
-0.001669
-0.001813
-0.001976
-0.001957
-0.001682
-0.001590
-0.001939
-0.002388
-0.002545
-0.002285
-0.001758
-0.001417
-0.001380
-0.001404
-0.001451
-0.001527
-0.001493
-0.001349
-0.001530
-0.001769
-0.001761
-0.001674
-0.001687
-0.001582
-0.001265
-0.001262
-0.001808
-0.002020
-0.001598
-0.001270
-0.001441
-0.001593
-0.001446
-0.001490
-0.001734
-0.001661
-0.001532
-0.001666
-0.001981
-0.001774
-0.001378
-0.001299
-0.001561
-0.001658
-0.001661
-0.001829
-0.001855
-0.001564
-0.001375
-0.001441
-0.001312
-0.001110
-0.001333
-0.001713
-0.001981
-0.002296
-0.002469
-0.002170
-0.001695
-0.001587
-0.001894
-0.002018
-0.002013
-0.002125
-0.002167
-0.002062
-0.001913
-0.001669
-0.001548
-0.001603
-0.001795
-0.001784
-0.001648
-0.001763
-0.002060
-0.002133
-0.001963
-0.001808
-0.001850
-0.001771
-0.001653
-0.001551
-0.001501
-0.001380
-0.001215
-0.001275
-0.001527
-0.001433
-0.001249
-0.001225
-0.001194
-0.001275
-0.001629
-0.001989
-0.002078
-0.002010
-0.002010
-0.001968
-0.001808
-0.001703
-0.001671
-0.001548
-0.001396
-0.001231
-0.001225
-0.001252
-0.001288
-0.001393
-0.001433
-0.001367
-0.001296
-0.001462
-0.001590
-0.001527
-0.001501
-0.001569
-0.001511
-0.001317
-0.001475
-0.001532
-0.001244
-0.001126
-0.001354
-0.001551
-0.001467
-0.001438
-0.001504
-0.001480
-0.001462
-0.001354
-0.001312
-0.001262
-0.001378
-0.001483
-0.001519
-0.001435
-0.001417
-0.001367
-0.001333
-0.001485
-0.001716
-0.001779
-0.001792
-0.001792
-0.001637
-0.001538
-0.001687
-0.001635
-0.001485
-0.001414
-0.001275
-0.001023
-0.000905
-0.001215
-0.001572
-0.001553
-0.001443
-0.001593
-0.001545
-0.001341
-0.001456
-0.001556
-0.001467
-0.001367
-0.001414
-0.001420
-0.001454
-0.001433
-0.001417
-0.001286
-0.001110
-0.001131
-0.001131
-0.001023
-0.001071
-0.001280
-0.001498
-0.001572
-0.001648
-0.001601
-0.001530
-0.001267
-0.001050
-0.001063
-0.001102
-0.001139
-0.001404
-0.001559
-0.001498
-0.001336
-0.001315
-0.001383
-0.001569
-0.001595
-0.001438
-0.001343
-0.001322
-0.001341
-0.001322
-0.001362
-0.001448
-0.001469
-0.001532
-0.001627
-0.001695
-0.001645
-0.001372
-0.001131
-0.001165
-0.001252
-0.001252
-0.001047
-0.000897
-0.000774
-0.000806
-0.000916
-0.001018
-0.001168
-0.001459
-0.001603
-0.001441
-0.001157
-0.001120
-0.001202
-0.001278
-0.001252
-0.001212
-0.001089
-0.000984
-0.001071
-0.001336
-0.001304
-0.001039
-0.000882
-0.000953
-0.001254
-0.001325
-0.001239
-0.001291
-0.001280
-0.001057
-0.000916
-0.001155
-0.001383
-0.001212
-0.001118
-0.001275
-0.001278
-0.001086
-0.001050
-0.001278
-0.001441
-0.001304
-0.001191
-0.001262
-0.001231
-0.001002
-0.000934
-0.000994
-0.001141
-0.001102
-0.000981
-0.000963
-0.001191
-0.001385
-0.001451
-0.001543
-0.001469
-0.001233
-0.001084
-0.001322
-0.001456
-0.001299
-0.001430
-0.001810
-0.001687
-0.001315
-0.001333
-0.001493
-0.001380
-0.001076
-0.000937
-0.000863
-0.000724
-0.000900
-0.001136
-0.001034
-0.000832
-0.000997
-0.001144
-0.001183
-0.001210
-0.001372
-0.001582
-0.001795
-0.002015
-0.001989
-0.001763
-0.001525
-0.001359
-0.001273
-0.001015
-0.000816
-0.000890
-0.000955
-0.000887
-0.000974
-0.001105
-0.001052
-0.000942
-0.001144
-0.001393
-0.001364
-0.001273
-0.001401
-0.001357
-0.001162
-0.001105
-0.001086
-0.000921
-0.000924
-0.001189
-0.001244
-0.000876
-0.000777
-0.001147
-0.001569
-0.001511
-0.001280
-0.001294
-0.001385
-0.001346
-0.001191
-0.000939
-0.000787
-0.000732
-0.000577
-0.000596
-0.000850
-0.001008
-0.001034
-0.001036
-0.001134
-0.001183
-0.001149
-0.001086
-0.000994
-0.000834
-0.000845
-0.000895
-0.000682
-0.000501
-0.000640
-0.001063
-0.001388
-0.001343
-0.001034
-0.000966
-0.001191
-0.001412
-0.001480
-0.001498
-0.001451
-0.001354
-0.001260
-0.001010
-0.000743
-0.000680
-0.000871
-0.000932
-0.000740
-0.000863
-0.001220
-0.001367
-0.001228
-0.001152
-0.001165
-0.001186
-0.001225
-0.001294
-0.001202
-0.001118
-0.001336
-0.001288
-0.000882
-0.000829
-0.001220
-0.001320
-0.001018
-0.000911
-0.000903
-0.000806
-0.000879
-0.001233
-0.001189
-0.000824
-0.000756
-0.000916
-0.000958
-0.000882
-0.001010
-0.001320
-0.001325
-0.001157
-0.001050
-0.001060
-0.000994
-0.000895
-0.000811
-0.000635
-0.000509
-0.000790
-0.001113
-0.001102
-0.000924
-0.000840
-0.000764
-0.000593
-0.000583
-0.000722
-0.000701
-0.000680
-0.000787
-0.000806
-0.000779
-0.000829
-0.000908
-0.000968
-0.001065
-0.001173
-0.001257
-0.001260
-0.001283
-0.001367
-0.001283
-0.001139
-0.001120
-0.000942
-0.000680
-0.000640
-0.000806
-0.000827
-0.000753
-0.000871
-0.000960
-0.000900
-0.000871
-0.000989
-0.001060
-0.000968
-0.000966
-0.001089
-0.001136
-0.001113
-0.001215
-0.001288
-0.001254
-0.001126
-0.001039
-0.001042
-0.001097
-0.000987
-0.000753
-0.000572
-0.000530
-0.000575
-0.000682
-0.000795
-0.000790
-0.000905
-0.001071
-0.001149
-0.001278
-0.001430
-0.001252
-0.000939
-0.000819
-0.000829
-0.000800
-0.000855
-0.001039
-0.001094
-0.000963
-0.001149
-0.001378
-0.001304
-0.001134
-0.001010
-0.000897
-0.000761
-0.000821
-0.000911
-0.000932
-0.000866
-0.000987
-0.001239
-0.001307
-0.001152
-0.000974
-0.000890
-0.000821
-0.000795
-0.000871
-0.000884
-0.000787
-0.000824
-0.001013
-0.001039
-0.001107
-0.001257
-0.001141
-0.000890
-0.000890
-0.001078
-0.001286
-0.001480
-0.001448
-0.001021
-0.000688
-0.000619
-0.000501
-0.000438
-0.000449
-0.000383
-0.000383
-0.000651
-0.001015
-0.001165
-0.001126
-0.000929
-0.000690
-0.000593
-0.000727
-0.000701
-0.000690
-0.000832
-0.000968
-0.001013
-0.000981
-0.000992
-0.000908
-0.000617
-0.000585
-0.000827
-0.000974
-0.001002
-0.001057
-0.001021
-0.000890
-0.000761
-0.000667
-0.000690
-0.000821
-0.001023
-0.001065
-0.001202
-0.001367
-0.001283
-0.001065
-0.000992
-0.001005
-0.000745
-0.000627
-0.000800
-0.000816
-0.000761
-0.001086
-0.001328
-0.000958
-0.000480
-0.000475
-0.000559
-0.000412
-0.000323
-0.000443
-0.000478
-0.000522
-0.000693
-0.000842
-0.000806
-0.000803
-0.000960
-0.001010
-0.000981
-0.001126
-0.001165
-0.001128
-0.001107
-0.001105
-0.001084
-0.000837
-0.000491
-0.000622
-0.000921
-0.000845
-0.000617
-0.000604
-0.000866
-0.000834
-0.000509
-0.000438
-0.000572
-0.000567
-0.000596
-0.000842
-0.001013
-0.001010
-0.000908
-0.000737
-0.000630
-0.000485
-0.000598
-0.000987
-0.000926
-0.000653
-0.000667
-0.000858
-0.000811
-0.000795
-0.000900
-0.000939
-0.000640
-0.000527
-0.000724
-0.000617
-0.000373
-0.000564
-0.000698
-0.000546
-0.000483
-0.000829
-0.001110
-0.001005
-0.000774
-0.000606
-0.000554
-0.000625
-0.000729
-0.000827
-0.000706
-0.000614
-0.000674
-0.000819
-0.000871
-0.000758
-0.000564
-0.000543
-0.000659
-0.000798
-0.000876
-0.000958
-0.000953
-0.000892
-0.000905
-0.000845
-0.000740
-0.000842
-0.001005
-0.001023
-0.000997
-0.001021
-0.000955
-0.000753
-0.000709
-0.000640
-0.000373
-0.000386
-0.000630
-0.000659
-0.000554
-0.000622
-0.000682
-0.000625
-0.000480
-0.000577
-0.000808
-0.000945
-0.000934
-0.000813
-0.000688
-0.000701
-0.000638
-0.000488
-0.000449
-0.000527
-0.000433
-0.000297
-0.000396
-0.000627
-0.000535
-0.000386
-0.000604
-0.000984
-0.000942
-0.000850
-0.000876
-0.000690
-0.000522
-0.000695
-0.000939
-0.000806
-0.000585
-0.000661
-0.000853
-0.000842
-0.000855
-0.000813
-0.000682
-0.000719
-0.000932
-0.000853
-0.000509
-0.000446
-0.000609
-0.000632
-0.000787
-0.001092
-0.001126
-0.000939
-0.000863
-0.000926
-0.000853
-0.000771
-0.000829
-0.001015
-0.001084
-0.001042
-0.000987
-0.000955
-0.000887
-0.000727
-0.000449
-0.000402
-0.000504
-0.000706
-0.000892
-0.001044
-0.001078
-0.000840
-0.000590
-0.000680
-0.000769
-0.000669
-0.000669
-0.000740
-0.000806
-0.000761
-0.000735
-0.000729
-0.000598
-0.000457
-0.000472
-0.000564
-0.000543
-0.000428
-0.000402
-0.000575
-0.000638
-0.000562
-0.000556
-0.000564
-0.000522
-0.000472
-0.000459
-0.000467
-0.000407
-0.000399
-0.000504
-0.000588
-0.000527
-0.000520
-0.000538
-0.000562
-0.000522
-0.000496
-0.000562
-0.000695
-0.000698
-0.000640
-0.000701
-0.000795
-0.000766
-0.000779
-0.000908
-0.000934
-0.000664
-0.000488
-0.000522
-0.000449
-0.000436
-0.000614
-0.000729
-0.000701
-0.000732
-0.000782
-0.000792
-0.000806
-0.000966
-0.001212
-0.001155
-0.000953
-0.000939
-0.001084
-0.001141
-0.001008
-0.000745
-0.000548
-0.000472
-0.000504
-0.000394
-0.000304
-0.000260
-0.000451
-0.000743
-0.000811
-0.000766
-0.000798
-0.000735
-0.000651
-0.000740
-0.000764
-0.000604
-0.000535
-0.000756
-0.000816
-0.000669
-0.000761
-0.001034
-0.000966
-0.000703
-0.000735
-0.000732
-0.000559
-0.000538
-0.000572
-0.000294
-0.000176
-0.000323
-0.000504
-0.000485
-0.000438
-0.000548
-0.000548
-0.000454
-0.000625
-0.000853
-0.000750
-0.000667
-0.000753
-0.000648
-0.000381
-0.000391
-0.000446
-0.000333
-0.000315
-0.000472
-0.000604
-0.000590
-0.000758
-0.000884
-0.000887
-0.000750
-0.000693
-0.000622
-0.000614
-0.000572
-0.000538
-0.000669
-0.000619
-0.000475
-0.000562
-0.000761
-0.000798
-0.000743
-0.000840
-0.001005
-0.001044
-0.000947
-0.000945
-0.000774
-0.000577
-0.000719
-0.000845
-0.000630
-0.000499
-0.000693
-0.000821
-0.000611
-0.000619
-0.000824
-0.000753
-0.000430
-0.000281
-0.000362
-0.000354
-0.000218
-0.000281
-0.000352
-0.000383
-0.000451
-0.000559
-0.000709
-0.000743
-0.000604
-0.000501
-0.000436
-0.000291
-0.000320
-0.000520
-0.000674
-0.000711
-0.000569
-0.000567
-0.000672
-0.000609
-0.000630
-0.000758
-0.000601
-0.000478
-0.000501
-0.000548
-0.000659
-0.000695
-0.000790
-0.000834
-0.000698
-0.000711
-0.000827
-0.000598
-0.000260
-0.000451
-0.000569
-0.000491
-0.000509
-0.000782
-0.000685
-0.000388
-0.000478
-0.000709
-0.000682
-0.000698
-0.000803
-0.000635
-0.000375
-0.000480
-0.000530
-0.000446
-0.000454
-0.000485
-0.000396
-0.000299
-0.000315
-0.000336
-0.000339
-0.000412
-0.000491
-0.000664
-0.000819
-0.000850
-0.000703
-0.000638
-0.000556
-0.000341
-0.000163
-0.000171
-0.000239
-0.000312
-0.000344
-0.000480
-0.000483
-0.000344
-0.000223
-0.000315
-0.000291
-0.000105
-0.000016
-0.000026
-0.000092
-0.000234
-0.000506
-0.000701
-0.000703
-0.000688
-0.000562
-0.000409
-0.000325
-0.000378
-0.000362
-0.000388
-0.000493
-0.000546
-0.000475
-0.000423
-0.000527
-0.000622
-0.000533
-0.000373
-0.000404
-0.000443
-0.000199
-0.000045
-0.000223
-0.000325
-0.000241
-0.000346
-0.000530
-0.000449
-0.000404
-0.000485
-0.000454
-0.000278
-0.000409
-0.000617
-0.000593
-0.000517
-0.000554
-0.000554
-0.000472
-0.000485
-0.000638
-0.000651
-0.000506
-0.000417
-0.000467
-0.000470
-0.000480
-0.000459
-0.000488
-0.000590
-0.000462
-0.000297
-0.000110
-0.000087
-0.000144
-0.000278
-0.000506
-0.000551
-0.000572
-0.000646
-0.000619
-0.000667
-0.000722
-0.000504
-0.000165
-0.000171
-0.000354
-0.000365
-0.000234
-0.000268
-0.000257
-0.000163
-0.000262
-0.000381
-0.000365
-0.000365
-0.000362
-0.000341
-0.000349
-0.000451
-0.000667
-0.000845
-0.000764
-0.000446
-0.000276
-0.000283
-0.000160
-0.000050
-0.000087
-0.000092
-0.000092
-0.000312
-0.000527
-0.000569
-0.000362
-0.000367
-0.000464
-0.000318
-0.000150
-0.000184
-0.000260
-0.000228
-0.000268
-0.000386
-0.000430
-0.000488
-0.000546
-0.000601
-0.000541
-0.000525
-0.000580
-0.000585
-0.000457
-0.000341
-0.000265
-0.000299
-0.000483
-0.000701
-0.000703
-0.000357
-0.000134
-0.000226
-0.000286
-0.000247
-0.000291
-0.000289
-0.000184
-0.000333
-0.000525
-0.000504
-0.000270
-0.000294
-0.000533
-0.000493
-0.000207
-0.000252
-0.000543
-0.000590
-0.000370
-0.000383
-0.000412
-0.000425
-0.000483
-0.000630
-0.000635
-0.000525
-0.000517
-0.000606
-0.000493
-0.000446
-0.000722
-0.000979
-0.000682
-0.000501
-0.000659
-0.000648
-0.000388
-0.000386
-0.000638
-0.000632
-0.000501
-0.000672
-0.000771
-0.000543
-0.000522
-0.000813
-0.000937
-0.000811
-0.000619
-0.000554
-0.000415
-0.000344
-0.000559
-0.000682
-0.000485
-0.000278
-0.000173
-0.000018
0.000212
0.000205
0.000024
-0.000202
-0.000480
-0.000703
-0.000651
-0.000485
-0.000475
-0.000451
-0.000383
-0.000493
-0.000643
-0.000677
-0.000764
-0.001000
-0.000997
-0.000664
-0.000472
-0.000525
-0.000548
-0.000556
-0.000667
-0.000748
-0.000682
-0.000556
-0.000459
-0.000538
-0.000470
-0.000388
-0.000462
-0.000575
-0.000514
-0.000436
-0.000538
-0.000564
-0.000425
-0.000396
-0.000543
-0.000538
-0.000244
-0.000102
-0.000186
-0.000131
-0.000116
-0.000328
-0.000433
-0.000446
-0.000478
-0.000457
-0.000373
-0.000407
-0.000417
-0.000381
-0.000499
-0.000648
-0.000504
-0.000381
-0.000485
-0.000627
-0.000485
-0.000273
-0.000137
-0.000076
-0.000011
-0.000003
-0.000184
-0.000286
-0.000176
-0.000108
-0.000176
-0.000102
-0.000055
-0.000255
-0.000428
-0.000370
-0.000213
-0.000194
-0.000226
-0.000386
-0.000572
-0.000640
-0.000459
-0.000464
-0.000667
-0.000758
-0.000543
-0.000333
-0.000349
-0.000278
-0.000158
-0.000310
-0.000527
-0.000467
-0.000399
-0.000381
-0.000378
-0.000323
-0.000328
-0.000291
-0.000189
-0.000276
-0.000409
-0.000464
-0.000423
-0.000336
-0.000241
-0.000192
-0.000315
-0.000609
-0.000648
-0.000619
-0.000706
-0.000803
-0.000727
-0.000619
-0.000638
-0.000609
-0.000344
-0.000184
-0.000352
-0.000365
-0.000097
-0.000105
-0.000346
-0.000352
-0.000194
-0.000341
-0.000530
-0.000441
-0.000265
-0.000304
-0.000286
-0.000215
-0.000283
-0.000417
-0.000323
-0.000139
-0.000152
-0.000283
-0.000323
-0.000184
-0.000113
-0.000126
-0.000197
-0.000483
-0.000648
-0.000609
-0.000409
-0.000189
-0.000220
-0.000268
-0.000152
-0.000108
-0.000283
-0.000438
-0.000425
-0.000428
-0.000470
-0.000362
-0.000102
-0.000055
-0.000197
-0.000297
-0.000341
-0.000454
-0.000436
-0.000194
-0.000029
-0.000055
-0.000055
-0.000053
-0.000029
-0.000071
-0.000231
-0.000436
-0.000577
-0.000693
-0.000748
-0.000690
-0.000475
-0.000383
-0.000241
-0.000102
-0.000118
-0.000236
-0.000207
-0.000118
-0.000236
-0.000318
-0.000278
-0.000165
-0.000207
-0.000302
-0.000262
-0.000173
-0.000089
-0.000079
-0.000084
-0.000192
-0.000228
-0.000163
-0.000160
-0.000231
-0.000257
-0.000194
-0.000268
-0.000312
-0.000289
-0.000341
-0.000302
-0.000194
-0.000184
-0.000294
-0.000262
-0.000394
-0.000449
-0.000404
-0.000333
-0.000375
-0.000506
-0.000512
-0.000551
-0.000643
-0.000585
-0.000467
-0.000525
-0.000517
-0.000218
-0.000032
-0.000108
-0.000123
-0.000118
-0.000281
-0.000454
-0.000349
-0.000097
0.000005
0.000047
-0.000016
-0.000265
-0.000470
-0.000433
-0.000328
-0.000315
-0.000336
-0.000312
-0.000268
-0.000239
-0.000226
-0.000087
-0.000081
-0.000165
-0.000255
-0.000323
-0.000307
-0.000289
-0.000273
-0.000150
-0.000118
-0.000181
-0.000289
-0.000260
-0.000202
-0.000205
-0.000291
-0.000265
-0.000289
-0.000383
-0.000462
-0.000522
-0.000436
-0.000312
-0.000252
-0.000304
-0.000291
-0.000181
-0.000042
0.000010
-0.000134
-0.000171
-0.000092
-0.000055
-0.000055
0.000045
0.000084
0.000008
-0.000181
-0.000071
0.000016
-0.000029
-0.000050
-0.000074
-0.000268
-0.000407
-0.000273
-0.000113
-0.000223
-0.000194
-0.000018
0.000031
-0.000097
-0.000210
-0.000178
-0.000055
-0.000037
0.000021
0.000076
-0.000018
-0.000137
-0.000081
-0.000063
-0.000158
-0.000304
-0.000373
-0.000325
-0.000294
-0.000404
-0.000491
-0.000509
-0.000407
-0.000325
-0.000270
-0.000310
-0.000262
-0.000270
-0.000360
-0.000378
-0.000333
-0.000336
-0.000373
-0.000231
0.000003
0.000055
0.000068
0.000126
0.000100
-0.000134
-0.000220
-0.000095
0.000010
-0.000037
-0.000089
-0.000155
-0.000163
-0.000131
-0.000181
-0.000291
-0.000533
-0.000551
-0.000478
-0.000362
-0.000137
-0.000100
-0.000186
-0.000147
-0.000042
-0.000134
-0.000451
-0.000688
-0.000583
-0.000388
-0.000312
-0.000207
-0.000047
0.000050
0.000055
0.000081
0.000215
0.000260
0.000178
0.000089
0.000102
0.000076
0.000128
0.000152
0.000199
0.000163
0.000039
-0.000163
-0.000262
-0.000370
-0.000323
-0.000283
-0.000215
-0.000178
-0.000163
-0.000129
-0.000252
-0.000362
-0.000352
-0.000312
-0.000283
-0.000129
0.000081
0.000039
-0.000074
-0.000152
-0.000244
-0.000391
-0.000404
-0.000231
-0.000147
-0.000223
-0.000239
-0.000160
-0.000205
-0.000255
-0.000139
-0.000194
-0.000346
-0.000278
-0.000147
-0.000210
-0.000336
-0.000346
-0.000325
-0.000373
-0.000297
-0.000220
-0.000220
-0.000283
-0.000367
-0.000394
-0.000328
-0.000220
-0.000178
-0.000336
-0.000404
-0.000299
-0.000231
-0.000207
-0.000210
-0.000302
-0.000226
-0.000000
0.000021
-0.000173
-0.000123
0.000084
0.000060
-0.000055
-0.000005
0.000039
-0.000163
-0.000244
-0.000060
-0.000029
-0.000168
-0.000178
-0.000047
-0.000047
-0.000134
0.000010
0.000173
0.000097
0.000045
0.000160
0.000168
-0.000039
-0.000236
-0.000299
-0.000381
-0.000446
-0.000294
-0.000089
-0.000066
-0.000118
-0.000199
-0.000304
-0.000331
-0.000302
-0.000328
-0.000509
-0.000451
-0.000310
-0.000205
-0.000223
-0.000139
-0.000152
-0.000244
-0.000168
-0.000047
-0.000102
-0.000215
-0.000087
0.000024
-0.000084
-0.000147
-0.000029
0.000073
-0.000024
-0.000074
0.000039
0.000097
0.000034
-0.000108
-0.000113
-0.000071
-0.000024
-0.000060
-0.000097
-0.000215
-0.000362
-0.000399
-0.000391
-0.000262
-0.000060
0.000039
0.000079
0.000163
0.000131
0.000118
0.000094
0.000152
0.000026
-0.000126
-0.000249
-0.000205
-0.000158
-0.000134
-0.000126
-0.000131
-0.000063
-0.000011
-0.000021
-0.000100
-0.000068
-0.000029
-0.000081
-0.000074
0.000042
0.000142
0.000079
-0.000039
-0.000102
-0.000260
-0.000407
-0.000428
-0.000297
-0.000228
-0.000283
-0.000315
-0.000223
-0.000165
-0.000215
-0.000155
-0.000050
-0.000011
-0.000087
-0.000129
-0.000084
-0.000139
-0.000147
-0.000066
0.000050
0.000139
0.000050
-0.000008
-0.000081
-0.000189
-0.000152
-0.000026
-0.000042
-0.000150
-0.000192
-0.000207
-0.000199
-0.000165
-0.000150
-0.000247
-0.000215
-0.000042
-0.000013
-0.000029
-0.000024
-0.000005
-0.000118
-0.000218
-0.000286
-0.000286
-0.000260
-0.000215
-0.000270
-0.000210
-0.000102
-0.000003
0.000073
0.000144
0.000144
0.000094
0.000152
0.000155
-0.000000
-0.000273
-0.000307
-0.000105
-0.000131
-0.000236
-0.000165
-0.000089
-0.000074
0.000029
0.000134
0.000003
-0.000081
-0.000058
-0.000110
-0.000270
-0.000283
-0.000186
-0.000210
-0.000123
-0.000008
-0.000000
-0.000134
-0.000121
-0.000055
-0.000047
-0.000013
-0.000079
-0.000102
0.000039
0.000081
-0.000003
-0.000053
0.000016
0.000003
-0.000092
-0.000176
-0.000102
-0.000113
-0.000178
-0.000160
-0.000116
-0.000066
0.000047
0.000105
0.000223
0.000236
0.000152
0.000092
0.000134
0.000113
-0.000018
-0.000016
0.000126
0.000026
-0.000210
-0.000223
-0.000058
-0.000018
-0.000108
0.000024
0.000226
0.000128
0.000008
0.000071
0.000118
-0.000021
-0.000110
-0.000163
-0.000241
-0.000247
-0.000071
0.000042
0.000021
-0.000000
0.000076
0.000050
-0.000039
-0.000155
-0.000252
-0.000467
-0.000514
-0.000352
-0.000236
-0.000273
-0.000189
-0.000032
-0.000105
-0.000346
-0.000320
-0.000207
-0.000202
-0.000241
-0.000024
0.000155
0.000100
0.000110
0.000163
0.000139
0.000018
0.000016
0.000139
0.000262
0.000278
0.000176
0.000024
-0.000045
-0.000021
-0.000037
-0.000102
-0.000089
-0.000071
-0.000176
-0.000273
-0.000142
-0.000050
-0.000150
-0.000247
-0.000323
-0.000381
-0.000412
-0.000286
-0.000079
-0.000066
-0.000257
-0.000205
-0.000060
-0.000018
0.000021
0.000026
-0.000029
0.000010
0.000147
0.000197
0.000173
0.000236
0.000365
0.000291
0.000155
0.000168
0.000260
0.000152
0.000094
0.000131
0.000094
0.000068
0.000087
0.000131
-0.000095
-0.000318
-0.000260
-0.000126
-0.000097
-0.000144
-0.000129
-0.000063
-0.000081
-0.000147
-0.000081
-0.000105
-0.000184
-0.000207
-0.000076
-0.000029
-0.000050
0.000063
0.000147
-0.000053
-0.000307
-0.000236
-0.000055
-0.000118
-0.000236
-0.000113
0.000024
0.000079
0.000155
0.000310
0.000373
0.000247
0.000191
0.000228
0.000136
-0.000113
-0.000218
-0.000339
-0.000320
-0.000097
0.000018
-0.000079
-0.000139
-0.000024
-0.000003
-0.000181
-0.000291
-0.000134
-0.000076
-0.000089
-0.000045
-0.000037
-0.000142
-0.000074
0.000147
0.000152
0.000058
0.000121
0.000149
0.000037
-0.000047
0.000063
0.000079
-0.000011
0.000081
0.000226
0.000254
0.000257
0.000325
0.000244
0.000003
-0.000055
0.000050
0.000184
0.000212
0.000165
0.000134
0.000094
-0.000071
-0.000158
-0.000142
-0.000110
-0.000220
-0.000289
-0.000176
-0.000024
-0.000011
0.000084
0.000197
0.000176
0.000073
0.000142
0.000178
0.000178
0.000181
0.000115
-0.000034
-0.000055
-0.000060
-0.000155
-0.000297
-0.000210
-0.000181
-0.000255
-0.000129
0.000079
0.000155
0.000092
0.000168
0.000249
0.000210
0.000073
0.000024
-0.000047
-0.000247
-0.000346
-0.000315
-0.000273
-0.000178
-0.000123
-0.000144
-0.000032
0.000094
0.000136
0.000066
0.000226
0.000349
0.000252
0.000076
0.000076
0.000079
-0.000042
-0.000160
-0.000081
0.000016
0.000131
0.000184
0.000275
0.000310
0.000218
0.000184
0.000134
-0.000013
-0.000087
0.000005
0.000005
-0.000060
-0.000060
-0.000152
-0.000202
-0.000092
0.000052
-0.000084
-0.000244
-0.000131
0.000026
-0.000008
-0.000050
0.000005
0.000031
0.000066
0.000202
0.000328
0.000226
-0.000063
-0.000160
-0.000134
-0.000050
-0.000102
-0.000105
-0.000050
-0.000068
-0.000134
-0.000126
-0.000121
-0.000123
-0.000249
-0.000213
-0.000060
0.000097
0.000168
0.000205
0.000076
0.000008
0.000055
0.000202
0.000165
0.000165
0.000207
0.000186
0.000008
-0.000071
0.000003
0.000024
-0.000060
-0.000003
0.000094
0.000121
0.000126
0.000186
0.000210
0.000178
0.000094
0.000076
0.000029
-0.000026
-0.000029
-0.000024
-0.000084
-0.000018
0.000107
0.000160
0.000144
0.000165
0.000142
0.000060
-0.000060
0.000016
0.000066
-0.000024
-0.000032
0.000003
-0.000026
-0.000034
0.000092
0.000191
0.000131
0.000100
0.000071
-0.000066
-0.000129
0.000073
0.000147
0.000034
-0.000000
0.000139
0.000115
0.000071
0.000094
0.000071
-0.000032
0.000016
0.000152
0.000220
0.000296
0.000291
0.000034
-0.000134
-0.000228
-0.000354
-0.000381
-0.000171
-0.000018
-0.000066
-0.000037
0.000147
0.000215
0.000170
0.000060
-0.000047
-0.000029
0.000139
0.000310
0.000268
0.000170
0.000233
0.000212
0.000186
0.000176
0.000155
0.000087
0.000047
0.000149
0.000173
0.000168
0.000270
0.000262
0.000100
0.000063
0.000231
0.000362
0.000260
0.000160
0.000220
0.000247
0.000254
0.000257
0.000236
0.000157
0.000105
0.000097
0.000092
0.000081
-0.000032
-0.000071
-0.000071
-0.000076
-0.000092
0.000018
0.000170
0.000113
0.000003
0.000060
0.000047
-0.000060
-0.000137
-0.000084
-0.000029
0.000016
0.000115
0.000131
0.000100
0.000031
0.000039
0.000039
0.000134
0.000223
0.000260
0.000215
0.000186
0.000220
0.000254
0.000202
0.000102
-0.000084
-0.000108
-0.000108
-0.000053
0.000068
0.000063
-0.000076
-0.000071
0.000058
0.000144
0.000168
0.000191
0.000236
0.000128
0.000079
0.000155
0.000226
0.000155
0.000165
0.000155
0.000021
0.000094
0.000291
0.000289
0.000241
0.000333
0.000433
0.000341
0.000118
0.000039
-0.000034
-0.000050
0.000034
0.000160
0.000231
0.000055
-0.000155
-0.000139
-0.000055
-0.000092
-0.000123
-0.000021
0.000094
0.000063
0.000042
0.000170
0.000220
0.000173
0.000076
0.000100
0.000142
0.000087
0.000073
0.000134
0.000160
0.000110
0.000034
0.000005
0.000058
0.000013
-0.000165
-0.000092
0.000029
0.000060
0.000102
0.000236
0.000147
-0.000008
-0.000076
-0.000003
0.000092
0.000199
0.000310
0.000249
0.000115
0.000128
0.000189
0.000094
-0.000011
0.000026
0.000066
0.000047
0.000024
0.000097
0.000029
-0.000066
0.000010
0.000123
0.000147
0.000142
0.000102
0.000134
0.000147
0.000189
0.000207
0.000157
0.000021
0.000089
0.000147
0.000178
0.000249
0.000257
0.000094
-0.000045
-0.000039
0.000087
0.000163
0.000155
0.000084
0.000031
-0.000032
0.000039
0.000003
-0.000100
-0.000102
0.000008
0.000003
0.000107
0.000299
0.000299
0.000115
-0.000081
-0.000076
0.000021
0.000123
0.000291
0.000310
0.000231
0.000139
0.000194
0.000241
0.000210
0.000184
0.000184
0.000228
0.000233
0.000186
0.000123
0.000105
0.000081
0.000134
0.000236
0.000260
0.000241
0.000228
0.000228
0.000212
0.000170
0.000223
0.000270
0.000197
0.000058
-0.000137
-0.000234
-0.000173
-0.000105
0.000008
0.000131
0.000170
0.000202
0.000189
0.000291
0.000281
0.000149
-0.000097
-0.000042
0.000105
0.000173
0.000163
0.000157
0.000024
-0.000168
-0.000215
-0.000055
0.000084
0.000060
0.000134
0.000239
0.000233
0.000228
0.000357
0.000333
0.000189
0.000160
0.000186
0.000102
0.000110
0.000210
0.000210
0.000247
0.000260
0.000226
0.000071
0.000010
0.000042
0.000039
0.000081
0.000249
0.000289
0.000160
0.000128
0.000128
0.000058
-0.000003
0.000100
0.000199
0.000273
0.000354
0.000433
0.000441
0.000315
0.000142
0.000081
0.000176
0.000239
0.000239
0.000168
0.000102
0.000008
-0.000068
-0.000079
0.000055
0.000123
0.000034
0.000073
0.000231
0.000312
0.000328
0.000367
0.000299
0.000160
0.000173
0.000165
0.000084
0.000042
0.000058
-0.000095
-0.000081
0.000115
0.000197
0.000163
0.000173
0.000262
0.000275
0.000212
0.000304
0.000359
0.000315
0.000173
0.000050
0.000092
0.000136
0.000173
0.000168
0.000184
0.000254
0.000270
0.000254
0.000149
0.000207
0.000160
0.000097
0.000123
0.000184
0.000115
0.000026
-0.000045
-0.000092
-0.000102
-0.000081
0.000034
0.000194
0.000110
0.000076
0.000076
0.000142
0.000199
0.000157
-0.000005
-0.000105
-0.000050
0.000052
0.000066
0.000126
0.000233
0.000184
0.000134
0.000270
0.000393
0.000344
0.000265
0.000307
0.000323
0.000197
0.000147
0.000207
0.000173
0.000010
-0.000102
-0.000032
0.000170
0.000260
0.000199
0.000181
0.000100
0.000029
0.000131
0.000283
0.000233
0.000199
0.000170
0.000152
0.000155
0.000136
0.000278
0.000304
0.000191
0.000186
0.000210
0.000231
0.000241
0.000273
0.000260
0.000199
0.000205
0.000197
0.000126
0.000115
0.000181
0.000147
0.000092
0.000126
0.000097
0.000076
0.000118
0.000139
0.000163
0.000210
0.000333
0.000401
0.000273
0.000215
0.000236
0.000123
0.000016
0.000071
0.000155
0.000121
0.000084
0.000139
0.000079
0.000160
0.000278
0.000294
0.000262
0.000220
0.000210
0.000128
0.000016
0.000102
0.000254
0.000275
0.000160
0.000092
0.000126
0.000031
-0.000095
0.000081
0.000281
0.000244
0.000197
0.000289
0.000317
0.000278
0.000328
0.000344
0.000254
0.000189
0.000144
0.000121
0.000081
0.000186
0.000254
0.000317
0.000299
0.000375
0.000399
0.000349
0.000215
0.000247
0.000273
0.000247
0.000152
0.000123
0.000165
0.000121
0.000052
0.000121
0.000194
0.000142
0.000113
0.000241
0.000320
0.000265
0.000325
0.000443
0.000438
0.000365
0.000433
0.000477
0.000359
0.000199
0.000160
0.000205
0.000212
0.000249
0.000357
0.000412
0.000223
0.000123
0.000220
0.000359
0.000265
0.000076
-0.000034
0.000010
0.000024
-0.000013
-0.000079
-0.000137
-0.000123
0.000034
0.000155
0.000134
0.000136
0.000118
0.000163
0.000223
0.000254
0.000247
0.000228
0.000328
0.000210
0.000005
0.000063
0.000270
0.000323
0.000304
0.000359
0.000414
0.000438
0.000357
0.000233
0.000144
0.000063
0.000089
0.000142
0.000178
0.000092
-0.000029
-0.000029
0.000042
0.000081
0.000076
0.000100
0.000147
0.000212
0.000270
0.000375
0.000367
0.000391
0.000325
0.000262
0.000249
0.000233
0.000207
0.000142
0.000215
0.000312
0.000260
0.000168
0.000197
0.000278
0.000257
0.000239
0.000262
0.000270
0.000249
0.000223
0.000191
0.000131
0.000191
0.000247
0.000226
0.000194
0.000247
0.000241
0.000212
0.000341
0.000404
0.000317
0.000199
0.000220
0.000391
0.000362
0.000205
0.000121
0.000168
0.000134
0.000107
0.000202
0.000299
0.000218
0.000207
0.000233
0.000218
0.000168
0.000296
0.000449
0.000393
0.000370
0.000407
0.000435
0.000312
0.000118
0.000024
0.000042
0.000089
0.000026
0.000110
0.000197
0.000236
0.000134
0.000047
0.000115
0.000063
0.000063
0.000144
0.000178
0.000194
0.000231
0.000294
0.000307
0.000233
0.000163
0.000170
0.000029
-0.000024
-0.000008
0.000052
0.000123
0.000189
0.000328
0.000378
0.000189
0.000092
0.000128
0.000131
0.000063
0.000026
0.000113
0.000270
0.000283
0.000370
0.000420
0.000393
0.000275
0.000220
0.000210
0.000121
0.000003
0.000110
0.000226
0.000194
0.000128
0.000270
0.000373
0.000320
0.000231
0.000275
0.000197
0.000016
0.000087
0.000262
0.000286
0.000252
0.000391
0.000375
0.000202
0.000107
0.000144
0.000233
0.000210
0.000233
0.000110
0.000034
0.000147
0.000236
0.000170
0.000097
0.000205
0.000268
0.000163
0.000144
0.000252
0.000273
0.000189
0.000207
0.000157
0.000047
0.000087
0.000144
0.000147
0.000173
0.000233
0.000189
-0.000037
-0.000087
0.000037
0.000147
0.000218
0.000407
0.000504
0.000362
0.000291
0.000331
0.000338
0.000244
0.000275
0.000317
0.000126
0.000026
0.000105
0.000218
0.000157
0.000092
0.000115
0.000160
0.000244
0.000317
0.000338
0.000310
0.000257
0.000252
0.000344
0.000433
0.000459
0.000393
0.000260
0.000097
0.000121
0.000244
0.000357
0.000428
0.000409
0.000341
0.000207
0.000181
0.000173
0.000194
0.000231
0.000299
0.000388
0.000422
0.000462
0.000467
0.000430
0.000354
0.000296
0.000239
0.000325
0.000414
0.000383
0.000262
0.000199
0.000142
0.000136
0.000210
0.000278
0.000307
0.000165
0.000089
0.000210
0.000328
0.000289
0.000157
0.000113
0.000231
0.000289
0.000254
0.000341
0.000430
0.000352
0.000331
0.000420
0.000506
0.000470
0.000257
0.000102
0.000021
0.000010
0.000128
0.000239
0.000249
0.000244
0.000349
0.000401
0.000396
0.000349
0.000352
0.000289
0.000123
0.000003
0.000045
0.000092
0.000142
0.000170
0.000239
0.000283
0.000328
0.000388
0.000449
0.000438
0.000404
0.000417
0.000446
0.000399
0.000325
0.000244
0.000202
0.000118
0.000039
-0.000003
0.000063
0.000184
0.000281
0.000344
0.000462
0.000467
0.000386
0.000383
0.000373
0.000218
0.000089
0.000168
0.000228
0.000128
0.000118
0.000265
0.000362
0.000299
0.000399
0.000472
0.000396
0.000302
0.000367
0.000344
0.000244
0.000228
0.000336
0.000265
0.000094
0.000081
0.000176
0.000149
0.000139
0.000165
0.000189
0.000205
0.000199
0.000252
0.000302
0.000260
0.000262
0.000296
0.000367
0.000446
0.000428
0.000412
0.000380
0.000278
0.000168
0.000165
0.000228
0.000254
0.000283
0.000252
0.000170
0.000189
0.000205
0.000165
0.000144
0.000168
0.000160
0.000128
0.000073
0.000026
0.000013
0.000045
0.000157
0.000197
0.000252
0.000236
0.000147
0.000052
0.000105
0.000223
0.000236
0.000325
0.000456
0.000443
0.000357
0.000304
0.000383
0.000328
0.000241
0.000312
0.000380
0.000283
0.000173
0.000310
0.000412
0.000317
0.000178
0.000247
0.000409
0.000328
0.000215
0.000231
0.000231
0.000170
0.000178
0.000328
0.000296
0.000260
0.000194
0.000097
0.000068
0.000142
0.000289
0.000226
0.000089
0.000024
0.000039
0.000123
0.000283
0.000446
0.000438
0.000299
0.000333
0.000302
0.000205
0.000165
0.000173
0.000115
0.000110
0.000186
0.000241
0.000262
0.000349
0.000401
0.000331
0.000233
0.000265
0.000310
0.000178
0.000097
0.000165
0.000189
0.000202
0.000244
0.000296
0.000312
0.000344
0.000451
0.000485
0.000362
0.000320
0.000446
0.000480
0.000302
0.000181
0.000299
0.000407
0.000341
0.000359
0.000535
0.000514
0.000388
0.000412
0.000435
0.000260
0.000126
0.000205
0.000338
0.000359
0.000349
0.000414
0.000467
0.000435
0.000383
0.000446
0.000407
0.000404
0.000378
0.000344
0.000325
0.000370
0.000425
0.000367
0.000275
0.000370
0.000433
0.000438
0.000456
0.000525
0.000543
0.000540
0.000538
0.000535
0.000456
0.000373
0.000362
0.000412
0.000454
0.000435
0.000414
0.000401
0.000281
0.000105
0.000087
0.000168
0.000081
0.000165
0.000254
0.000134
0.000026
0.000084
0.000165
0.000210
0.000239
0.000399
0.000435
0.000323
0.000333
0.000420
0.000359
0.000220
0.000163
0.000317
0.000328
0.000302
0.000378
0.000501
0.000443
0.000359
0.000328
0.000218
0.000102
0.000236
0.000365
0.000346
0.000304
0.000341
0.000414
0.000352
0.000283
0.000304
0.000338
0.000310
0.000362
0.000509
0.000517
0.000459
0.000430
0.000504
0.000459
0.000352
0.000289
0.000323
0.000310
0.000341
0.000393
0.000365
0.000265
0.000249
0.000233
0.000184
0.000194
0.000236
0.000244
0.000302
0.000359
0.000359
0.000289
0.000231
0.000173
0.000018
-0.000171
-0.000087
0.000081
0.000228
0.000275
0.000310
0.000294
0.000257
0.000304
0.000373
0.000391
0.000375
0.000367
0.000388
0.000315
0.000273
0.000333
0.000367
0.000375
0.000393
0.000336
0.000367
0.000417
0.000420
0.000407
0.000354
0.000265
0.000228
0.000283
0.000299
0.000283
0.000275
0.000323
0.000386
0.000349
0.000375
0.000409
0.000399
0.000462
0.000477
0.000441
0.000331
0.000289
0.000365
0.000304
0.000094
0.000071
0.000223
0.000260
0.000262
0.000325
0.000359
0.000323
0.000346
0.000391
0.000396
0.000344
0.000286
0.000231
0.000152
0.000102
0.000131
0.000231
0.000247
0.000173
0.000191
0.000333
0.000409
0.000341
0.000178
0.000055
0.000155
0.000325
0.000378
0.000341
0.000323
0.000464
0.000451
0.000233
0.000144
0.000218
0.000304
0.000328
0.000386
0.000464
0.000409
0.000341
0.000412
0.000401
0.000325
0.000302
0.000401
0.000310
0.000191
0.000228
0.000199
0.000149
0.000121
0.000226
0.000247
0.000220
0.000283
0.000367
0.000333
0.000241
0.000286
0.000367
0.000409
0.000359
0.000393
0.000359
0.000262
0.000265
0.000396
0.000456
0.000459
0.000451
0.000517
0.000470
0.000357
0.000299
0.000257
0.000270
0.000346
0.000362
0.000307
0.000265
0.000304
0.000176
0.000105
0.000244
0.000383
0.000304
0.000289
0.000417
0.000386
0.000163
0.000131
0.000212
0.000131
0.000052
0.000060
0.000076
0.000115
0.000168
0.000268
0.000307
0.000249
0.000163
0.000210
0.000323
0.000407
0.000386
0.000449
0.000435
0.000302
0.000239
0.000323
0.000370
0.000362
0.000236
0.000073
0.000081
0.000226
0.000304
0.000307
0.000268
0.000163
0.000144
0.000291
0.000407
0.000399
0.000391
0.000420
0.000464
0.000407
0.000422
0.000470
0.000407
0.000197
0.000071
0.000118
0.000118
0.000142
0.000254
0.000294
0.000252
0.000357
0.000517
0.000530
0.000430
0.000391
0.000417
0.000407
0.000386
0.000404
0.000323
0.000273
0.000233
0.000199
0.000257
0.000310
0.000352
0.000352
0.000247
0.000178
0.000228
0.000265
0.000142
0.000147
0.000228
0.000241
0.000152
0.000212
0.000396
0.000383
0.000262
0.000304
0.000341
0.000257
0.000207
0.000344
0.000393
0.000346
0.000375
0.000357
0.000241
0.000186
0.000328
0.000367
0.000365
0.000433
0.000522
0.000554
0.000512
0.000475
0.000349
0.000139
0.000087
0.000155
0.000092
0.000055
0.000136
0.000155
0.000026
0.000024
0.000170
0.000184
0.000142
0.000257
0.000480
0.000456
0.000446
0.000441
0.000367
0.000373
0.000480
0.000504
0.000283
0.000113
0.000157
0.000239
0.000189
0.000126
0.000139
0.000170
0.000249
0.000341
0.000401
0.000399
0.000456
0.000522
0.000501
0.000477
0.000483
0.000435
0.000354
0.000207
0.000047
0.000073
0.000165
0.000220
0.000189
0.000202
0.000249
0.000241
0.000331
0.000386
0.000317
0.000189
0.000294
0.000430
0.000446
0.000414
0.000383
0.000331
0.000315
0.000375
0.000459
0.000401
0.000323
0.000262
0.000233
0.000207
0.000283
0.000344
0.000352
0.000344
0.000362
0.000407
0.000446
0.000446
0.000399
0.000446
0.000433
0.000459
0.000464
0.000396
0.000275
0.000215
0.000289
0.000359
0.000365
0.000435
0.000517
0.000554
0.000493
0.000546
0.000617
0.000540
0.000467
0.000506
0.000506
0.000449
0.000414
0.000501
0.000525
0.000464
0.000428
0.000477
0.000425
0.000291
0.000270
0.000323
0.000409
0.000456
0.000525
0.000624
0.000561
0.000433
0.000310
0.000257
0.000207
0.000220
0.000278
0.000273
0.000331
0.000456
0.000504
0.000485
0.000449
0.000491
0.000401
0.000302
0.000317
0.000310
0.000312
0.000357
0.000459
0.000517
0.000506
0.000449
0.000393
0.000375
0.000388
0.000412
0.000441
0.000399
0.000315
0.000338
0.000370
0.000401
0.000367
0.000378
0.000401
0.000401
0.000354
0.000373
0.000443
0.000538
0.000564
0.000538
0.000546
0.000517
0.000407
0.000338
0.000304
0.000352
0.000291
0.000241
0.000273
0.000386
0.000409
0.000391
0.000380
0.000331
0.000325
0.000370
0.000393
0.000404
0.000391
0.000299
0.000233
0.000273
0.000357
0.000378
0.000336
