Start time = 18:19:58.568413
End time = 18:20:08.506700
laser_energy = 6.550
channel_1_dial = 850
channel_2_dial = 850
channel_3_dial = 850
channel_4_dial = 850
NG-1-LII = 0
NG-3-15399 = 0
NG-4-LII = 0
NG-4-15399 = 0
NG-5-LII = 0
NG-5-15399 = 0
NG-9-LII = 0
NG-9-15399 = 0
NG-10-01 = 0
NG-11-15399 = 0
NG-12-15399 = 0
NG-4A-2001 = 0
NG-4B-2001 = 0
NG-5A-2001 = 0
NG-3-2001 = 0
NG-5B-2001 = 0
NG-1-2001 = 0
NG-9-2001 = 0
NG-10-2001 = 0
NG-11-2001 = 0
NG-12-2001 = 0
AND-200SN09 = 0
AND-100SN09 = 0
AND-050SN09 = 0
AND-030SN09 = 0
AND-015SN05 = 0
PMT#1Voltage = 0
PMT#2Voltage = 0
t0(sec) = 0.000000E+0
dt(sec) = 4.000000E-10
F1:INSP "
DESCRIPTOR_NAME    : WAVEDESC           
TEMPLATE_NAME      : LECROY_2_3         
COMM_TYPE          : word               
COMM_ORDER         : HIFIRST            
WAVE_DESCRIPTOR    : 346                
USER_TEXT          : 0                  
RES_DESC1          : 0                  
TRIGTIME_ARRAY     : 0                  
RIS_TIME_ARRAY     : 0                  
RES_ARRAY1         : 0                  
WAVE_ARRAY_1       : 10002              
WAVE_ARRAY_2       : 0                  
RES_ARRAY2         : 0                  
RES_ARRAY3         : 0                  
INSTRUMENT_NAME    : LECROYHDO6104      
INSTRUMENT_NUMBER  : 6308               
TRACE_LABEL        :                    
RESERVED1          : 5001               
RESERVED2          : 0                  
WAVE_ARRAY_COUNT   : 5001               
PNTS_PER_SCREEN    : 5000               
FIRST_VALID_PNT    : 0                  
LAST_VALID_PNT     : 5000               
FIRST_POINT        : 0                  
SPARSING_FACTOR    : 1                  
SEGMENT_INDEX      : 0                  
SUBARRAY_COUNT     : 1                  
SWEEPS_PER_ACQ     : 200                
POINTS_PER_PAIR    : 0                  
PAIR_OFFSET        : 0                  
VERTICAL_GAIN      : 2.6238e-006        
VERTICAL_OFFSET    : 6.5501e-002        
MAX_VALUE          : 3.0816e+004        
MIN_VALUE          : 1.3388e+004        
NOMINAL_BITS       : 16                 
NOM_SUBARRAY_COUNT : 1                  
HORIZ_INTERVAL     : 4.0000e-010        
HORIZ_OFFSET       : -2.00000000e-007   
PIXEL_OFFSET       : -2.00000000e-007   
VERTUNIT           : Unit Name = V
HORUNIT            : Unit Name = S
HORIZ_UNCERTAINTY  : 1.0000e-012        
TRIGGER_TIME       : Date = APR 17, 2024, Time = 19:19:54.444956283
ACQ_DURATION       : 9.9988e+000        
RECORD_TYPE        : single_sweep       
PROCESSING_DONE    : no_processing      
RESERVED5          : 0                  
RIS_SWEEPS         : 1                  
TIMEBASE           : 200_ns/div         
VERT_COUPLING      : DC_50_Ohms         
PROBE_ATT          : 1.0000e+000        
FIXED_VERT_GAIN    : 5_mV/div           
BANDWIDTH_LIMIT    : off                
VERTICAL_VERNIER   : 1.1600e+000        
ACQ_VERT_OFFSET    : 0.0000e+000        
WAVE_SOURCE        : UNKNOWN            
"
0.000176
0.000178
0.000194
0.000184
0.000178
0.000197
0.000194
0.000220
0.000215
0.000189
0.000215
0.000207
0.000189
0.000181
0.000202
0.000189
0.000191
0.000191
0.000194
0.000202
0.000189
0.000178
0.000218
0.000178
0.000202
0.000186
0.000202
0.000197
0.000228
0.000176
0.000181
0.000207
0.000176
0.000178
0.000173
0.000178
0.000212
0.000178
0.000199
0.000205
0.000212
0.000218
0.000184
0.000176
0.000212
0.000184
0.000207
0.000199
0.000220
0.000202
0.000186
0.000207
0.000165
0.000178
0.000189
0.000223
0.000184
0.000186
0.000186
0.000194
0.000199
0.000186
0.000191
0.000191
0.000157
0.000160
0.000202
0.000212
0.000207
0.000189
0.000205
0.000220
0.000197
0.000184
0.000191
0.000197
0.000197
0.000191
0.000215
0.000202
0.000178
0.000184
0.000184
0.000218
0.000212
0.000181
0.000212
0.000191
0.000205
0.000178
0.000176
0.000176
0.000181
0.000165
0.000220
0.000197
0.000168
0.000173
0.000173
0.000189
0.000173
0.000147
0.000176
0.000191
0.000160
0.000199
0.000197
0.000157
0.000194
0.000165
0.000189
0.000207
0.000197
0.000210
0.000215
0.000215
0.000184
0.000205
0.000205
0.000191
0.000223
0.000207
0.000205
0.000202
0.000181
0.000178
0.000186
0.000189
0.000199
0.000189
0.000197
0.000184
0.000178
0.000176
0.000212
0.000178
0.000194
0.000178
0.000176
0.000168
0.000220
0.000170
0.000184
0.000210
0.000173
0.000215
0.000210
0.000197
0.000223
0.000210
0.000202
0.000218
0.000215
0.000168
0.000202
0.000205
0.000220
0.000220
0.000207
0.000205
0.000215
0.000202
0.000205
0.000197
0.000178
0.000189
0.000163
0.000186
0.000181
0.000142
0.000189
0.000194
0.000168
0.000194
0.000212
0.000212
0.000202
0.000215
0.000212
0.000191
0.000202
0.000199
0.000215
0.000205
0.000226
0.000194
0.000184
0.000199
0.000210
0.000186
0.000207
0.000210
0.000202
0.000205
0.000212
0.000199
0.000197
0.000178
0.000189
0.000191
0.000184
0.000189
0.000205
0.000228
0.000215
0.000215
0.000199
0.000186
0.000218
0.000181
0.000186
0.000168
0.000184
0.000149
0.000173
0.000199
0.000189
0.000202
0.000176
0.000189
0.000197
0.000173
0.000199
0.000233
0.000228
0.000223
0.000199
0.000218
0.000228
0.000218
0.000194
0.000197
0.000212
0.000189
0.000207
0.000218
0.000205
0.000207
0.000186
0.000207
0.000199
0.000191
0.000218
0.000210
0.000215
0.000215
0.000215
0.000191
0.000215
0.000202
0.000207
0.000226
0.000184
0.000165
0.000223
0.000194
0.000186
0.000207
0.000199
0.000202
0.000220
0.000207
0.000202
0.000189
0.000181
0.000181
0.000191
0.000205
0.000210
0.000189
0.000236
0.000212
0.000199
0.000191
0.000226
0.000189
0.000186
0.000184
0.000181
0.000199
0.000176
0.000165
0.000178
0.000184
0.000165
0.000173
0.000170
0.000181
0.000184
0.000176
0.000176
0.000202
0.000176
0.000197
0.000199
0.000186
0.000163
0.000191
0.000149
0.000186
0.000199
0.000176
0.000197
0.000184
0.000212
0.000176
0.000186
0.000184
0.000191
0.000186
0.000170
0.000170
0.000186
0.000144
0.000178
0.000197
0.000220
0.000194
0.000215
0.000218
0.000231
0.000202
0.000199
0.000226
0.000202
0.000186
0.000218
0.000205
0.000207
0.000202
0.000205
0.000218
0.000199
0.000178
0.000194
0.000191
0.000205
0.000189
0.000205
0.000199
0.000202
0.000184
0.000194
0.000202
0.000199
0.000197
0.000194
0.000212
0.000202
0.000226
0.000210
0.000228
0.000205
0.000197
0.000194
0.000226
0.000186
0.000168
0.000199
0.000181
0.000155
0.000181
0.000181
0.000199
0.000205
0.000178
0.000210
0.000210
0.000194
0.000168
0.000202
0.000202
0.000184
0.000176
0.000205
0.000239
0.000215
0.000218
0.000231
0.000218
0.000207
0.000207
0.000212
0.000210
0.000181
0.000186
0.000212
0.000189
0.000194
0.000181
0.000212
0.000197
0.000202
0.000194
0.000186
0.000173
0.000205
0.000181
0.000212
0.000212
0.000233
0.000207
0.000215
0.000199
0.000197
0.000215
0.000220
0.000254
0.000218
0.000197
0.000210
0.000152
0.000189
0.000184
0.000184
0.000231
0.000212
0.000191
0.000186
0.000202
0.000202
0.000178
0.000170
0.000157
0.000173
0.000194
0.000207
0.000226
0.000241
0.000236
0.000215
0.000231
0.000226
0.000207
0.000244
0.000254
0.000278
0.000244
0.000173
0.000134
0.000121
0.000121
0.000149
0.000163
0.000186
0.000178
0.000194
0.000265
0.000268
0.000257
0.000239
0.000199
0.000157
0.000129
0.000139
0.000147
0.000178
0.000165
0.000173
0.000184
0.000202
0.000239
0.000247
0.000312
0.000328
0.000262
0.000265
0.000233
0.000165
0.000144
0.000160
0.000184
0.000197
0.000186
0.000178
0.000207
0.000173
0.000165
0.000191
0.000202
0.000197
0.000176
0.000194
0.000202
0.000176
0.000199
0.000223
0.000247
0.000241
0.000228
0.000249
0.000233
0.000215
0.000170
0.000144
0.000139
0.000129
0.000136
0.000149
0.000149
0.000163
0.000121
0.000129
0.000163
0.000136
0.000178
0.000265
0.000331
0.000375
0.000386
0.000396
0.000357
0.000289
0.000241
0.000194
0.000176
0.000131
0.000094
0.000066
0.000031
0.000042
0.000102
0.000152
0.000186
0.000189
0.000239
0.000299
0.000304
0.000268
0.000247
0.000233
0.000178
0.000155
0.000110
0.000118
0.000129
0.000144
0.000189
0.000155
0.000163
0.000178
0.000220
0.000262
0.000278
0.000310
0.000294
0.000289
0.000252
0.000239
0.000226
0.000199
0.000110
0.000087
0.000024
0.000026
0.000037
0.000092
0.000087
0.000021
-0.000003
-0.000116
-0.000318
-0.000661
-0.001094
-0.001682
-0.002393
-0.003136
-0.003902
-0.004707
-0.005413
-0.006155
-0.006832
-0.007410
-0.007987
-0.008417
-0.008800
-0.009078
-0.009183
-0.009217
-0.009097
-0.008855
-0.008564
-0.008294
-0.008084
-0.007969
-0.007787
-0.007572
-0.007326
-0.007061
-0.006856
-0.006567
-0.006379
-0.006242
-0.006079
-0.005883
-0.005702
-0.005565
-0.005437
-0.005248
-0.005080
-0.004925
-0.004768
-0.004605
-0.004458
-0.004243
-0.004049
-0.003857
-0.003752
-0.003734
-0.003739
-0.003726
-0.003736
-0.003723
-0.003681
-0.003624
-0.003613
-0.003589
-0.003610
-0.003681
-0.003718
-0.003778
-0.003807
-0.003776
-0.003773
-0.003726
-0.003721
-0.003789
-0.003805
-0.003847
-0.003881
-0.003823
-0.003794
-0.003823
-0.003875
-0.003917
-0.003847
-0.003844
-0.003805
-0.003705
-0.003610
-0.003477
-0.003303
-0.003049
-0.002829
-0.002687
-0.002582
-0.002524
-0.002506
-0.002550
-0.002585
-0.002511
-0.002516
-0.002558
-0.002561
-0.002516
-0.002600
-0.002645
-0.002629
-0.002616
-0.002634
-0.002616
-0.002550
-0.002493
-0.002451
-0.002382
-0.002301
-0.002233
-0.002180
-0.002138
-0.002054
-0.001992
-0.001976
-0.001968
-0.001997
-0.002062
-0.002096
-0.002117
-0.002138
-0.002157
-0.002183
-0.002212
-0.002204
-0.002196
-0.002157
-0.002133
-0.002104
-0.002068
-0.001999
-0.001965
-0.001910
-0.001881
-0.001810
-0.001821
-0.001821
-0.001784
-0.001711
-0.001658
-0.001674
-0.001729
-0.001810
-0.001852
-0.001884
-0.001873
-0.001837
-0.001782
-0.001774
-0.001716
-0.001635
-0.001611
-0.001566
-0.001448
-0.001388
-0.001378
-0.001456
-0.001456
-0.001485
-0.001551
-0.001524
-0.001430
-0.001422
-0.001477
-0.001480
-0.001572
-0.001640
-0.001643
-0.001653
-0.001690
-0.001729
-0.001782
-0.001831
-0.001860
-0.001892
-0.001860
-0.001745
-0.001648
-0.001527
-0.001454
-0.001364
-0.001288
-0.001294
-0.001291
-0.001288
-0.001241
-0.001294
-0.001294
-0.001291
-0.001254
-0.001262
-0.001254
-0.001181
-0.001157
-0.001157
-0.001113
-0.001113
-0.001168
-0.001223
-0.001236
-0.001246
-0.001301
-0.001296
-0.001309
-0.001385
-0.001433
-0.001425
-0.001346
-0.001320
-0.001252
-0.001136
-0.001092
-0.001044
-0.001031
-0.001042
-0.001097
-0.001128
-0.001191
-0.001228
-0.001286
-0.001286
-0.001241
-0.001191
-0.001097
-0.001097
-0.001047
-0.000924
-0.000861
-0.000853
-0.000790
-0.000732
-0.000785
-0.000911
-0.000960
-0.001013
-0.001113
-0.001173
-0.001212
-0.001189
-0.001141
-0.001152
-0.001120
-0.001089
-0.001026
-0.001013
-0.001065
-0.001026
-0.000963
-0.000947
-0.000892
-0.000840
-0.000790
-0.000798
-0.000795
-0.000824
-0.000845
-0.000916
-0.000905
-0.000884
-0.000897
-0.000850
-0.000811
-0.000800
-0.000777
-0.000769
-0.000827
-0.000824
-0.000766
-0.000832
-0.000829
-0.000887
-0.000934
-0.000971
-0.000926
-0.000861
-0.000806
-0.000758
-0.000687
-0.000677
-0.000714
-0.000766
-0.000811
-0.000863
-0.000895
-0.000950
-0.001005
-0.001023
-0.001042
-0.001060
-0.001010
-0.000958
-0.000905
-0.000869
-0.000764
-0.000743
-0.000737
-0.000680
-0.000653
-0.000638
-0.000656
-0.000617
-0.000604
-0.000614
-0.000651
-0.000716
-0.000766
-0.000887
-0.000950
-0.001044
-0.001110
-0.001178
-0.001191
-0.001162
-0.001076
-0.001018
-0.000932
-0.000858
-0.000750
-0.000672
-0.000590
-0.000504
-0.000433
-0.000386
-0.000415
-0.000438
-0.000470
-0.000493
-0.000533
-0.000606
-0.000716
-0.000774
-0.000869
-0.000950
-0.000992
-0.001031
-0.001086
-0.001118
-0.001052
-0.000963
-0.000892
-0.000771
-0.000732
-0.000685
-0.000646
-0.000646
-0.000609
-0.000656
-0.000690
-0.000669
-0.000664
-0.000656
-0.000661
-0.000601
-0.000598
-0.000664
-0.000714
-0.000750
-0.000787
-0.000787
-0.000790
-0.000758
-0.000708
-0.000698
-0.000635
-0.000606
-0.000569
-0.000541
-0.000535
-0.000569
-0.000564
-0.000567
-0.000567
-0.000564
-0.000583
-0.000625
-0.000693
-0.000724
-0.000745
-0.000761
-0.000735
-0.000729
-0.000687
-0.000701
-0.000674
-0.000619
-0.000580
-0.000554
-0.000514
-0.000485
-0.000475
-0.000464
-0.000483
-0.000504
-0.000491
-0.000535
-0.000551
-0.000622
-0.000687
-0.000748
-0.000756
-0.000753
-0.000719
-0.000753
-0.000769
-0.000766
-0.000819
-0.000792
-0.000750
-0.000708
-0.000643
-0.000559
-0.000499
-0.000430
-0.000436
-0.000404
-0.000451
-0.000483
-0.000509
-0.000493
-0.000520
-0.000569
-0.000577
-0.000630
-0.000625
-0.000630
-0.000619
-0.000601
-0.000575
-0.000546
-0.000551
-0.000493
-0.000420
-0.000354
-0.000265
-0.000199
-0.000234
-0.000273
-0.000273
-0.000304
-0.000323
-0.000333
-0.000333
-0.000378
-0.000436
-0.000535
-0.000569
-0.000577
-0.000580
-0.000577
-0.000522
-0.000480
-0.000506
-0.000464
-0.000433
-0.000402
-0.000412
-0.000409
-0.000391
-0.000436
-0.000470
-0.000457
-0.000512
-0.000512
-0.000543
-0.000527
-0.000512
-0.000525
-0.000520
-0.000522
-0.000517
-0.000509
-0.000520
-0.000548
-0.000478
-0.000454
-0.000407
-0.000312
-0.000286
-0.000302
-0.000270
-0.000241
-0.000199
-0.000241
-0.000262
-0.000270
-0.000260
-0.000307
-0.000291
-0.000328
-0.000349
-0.000404
-0.000464
-0.000533
-0.000564
-0.000614
-0.000609
-0.000611
-0.000564
-0.000501
-0.000425
-0.000362
-0.000312
-0.000278
-0.000239
-0.000194
-0.000210
-0.000276
-0.000286
-0.000323
-0.000344
-0.000344
-0.000333
-0.000349
-0.000388
-0.000388
-0.000399
-0.000430
-0.000412
-0.000441
-0.000430
-0.000443
-0.000430
-0.000367
-0.000289
-0.000202
-0.000160
-0.000144
-0.000131
-0.000155
-0.000205
-0.000189
-0.000244
-0.000302
-0.000278
-0.000352
-0.000367
-0.000443
-0.000464
-0.000480
-0.000548
-0.000538
-0.000483
-0.000459
-0.000436
-0.000391
-0.000339
-0.000349
-0.000297
-0.000260
-0.000265
-0.000199
-0.000205
-0.000220
-0.000268
-0.000336
-0.000352
-0.000360
-0.000373
-0.000402
-0.000402
-0.000430
-0.000394
-0.000430
-0.000409
-0.000404
-0.000443
-0.000454
-0.000438
-0.000467
-0.000478
-0.000441
-0.000407
-0.000383
-0.000304
-0.000249
-0.000186
-0.000215
-0.000257
-0.000283
-0.000357
-0.000370
-0.000378
-0.000412
-0.000349
-0.000367
-0.000378
-0.000381
-0.000386
-0.000373
-0.000367
-0.000331
-0.000257
-0.000239
-0.000252
-0.000205
-0.000173
-0.000144
-0.000121
-0.000131
-0.000152
-0.000171
-0.000178
-0.000239
-0.000244
-0.000252
-0.000336
-0.000383
-0.000457
-0.000504
-0.000541
-0.000572
-0.000541
-0.000525
-0.000443
-0.000375
-0.000370
-0.000370
-0.000352
-0.000344
-0.000370
-0.000328
-0.000252
-0.000228
-0.000213
-0.000189
-0.000186
-0.000207
-0.000239
-0.000270
-0.000268
-0.000268
-0.000318
-0.000318
-0.000307
-0.000270
-0.000270
-0.000320
-0.000289
-0.000286
-0.000294
-0.000294
-0.000278
-0.000249
-0.000231
-0.000262
-0.000270
-0.000257
-0.000289
-0.000307
-0.000315
-0.000281
-0.000270
-0.000276
-0.000291
-0.000310
-0.000297
-0.000283
-0.000283
-0.000310
-0.000302
-0.000289
-0.000249
-0.000262
-0.000249
-0.000202
-0.000210
-0.000194
-0.000168
-0.000199
-0.000210
-0.000189
-0.000241
-0.000265
-0.000276
-0.000320
-0.000360
-0.000373
-0.000333
-0.000304
-0.000234
-0.000173
-0.000116
-0.000102
-0.000068
-0.000053
-0.000060
-0.000092
-0.000076
-0.000095
-0.000095
-0.000108
-0.000136
-0.000155
-0.000192
-0.000210
-0.000218
-0.000247
-0.000192
-0.000215
-0.000265
-0.000270
-0.000307
-0.000341
-0.000315
-0.000304
-0.000276
-0.000236
-0.000189
-0.000194
-0.000189
-0.000173
-0.000136
-0.000155
-0.000186
-0.000213
-0.000213
-0.000189
-0.000215
-0.000213
-0.000194
-0.000207
-0.000218
-0.000234
-0.000273
-0.000278
-0.000278
-0.000241
-0.000231
-0.000255
-0.000215
-0.000194
-0.000157
-0.000126
-0.000139
-0.000116
-0.000068
-0.000123
-0.000108
-0.000105
-0.000155
-0.000197
-0.000226
-0.000265
-0.000294
-0.000388
-0.000433
-0.000425
-0.000396
-0.000415
-0.000341
-0.000341
-0.000304
-0.000273
-0.000213
-0.000142
-0.000136
-0.000163
-0.000171
-0.000155
-0.000176
-0.000207
-0.000155
-0.000142
-0.000168
-0.000194
-0.000226
-0.000241
-0.000257
-0.000268
-0.000289
-0.000249
-0.000249
-0.000239
-0.000218
-0.000184
-0.000163
-0.000168
-0.000155
-0.000168
-0.000165
-0.000139
-0.000118
-0.000144
-0.000126
-0.000129
-0.000139
-0.000176
-0.000157
-0.000173
-0.000197
-0.000197
-0.000205
-0.000228
-0.000192
-0.000160
-0.000184
-0.000147
-0.000102
-0.000060
-0.000068
-0.000032
-0.000032
-0.000008
-0.000026
-0.000055
-0.000131
-0.000144
-0.000192
-0.000176
-0.000142
-0.000147
-0.000192
-0.000210
-0.000226
-0.000215
-0.000234
-0.000244
-0.000197
-0.000192
-0.000241
-0.000202
-0.000189
-0.000202
-0.000194
-0.000210
-0.000207
-0.000210
-0.000192
-0.000192
-0.000202
-0.000202
-0.000228
-0.000226
-0.000223
-0.000186
-0.000181
-0.000210
-0.000171
-0.000178
-0.000178
-0.000186
-0.000194
-0.000207
-0.000241
-0.000197
-0.000165
-0.000139
-0.000089
-0.000029
-0.000029
-0.000026
-0.000063
-0.000079
-0.000100
-0.000136
-0.000163
-0.000226
-0.000268
-0.000247
-0.000265
-0.000281
-0.000304
-0.000299
-0.000260
-0.000270
-0.000294
-0.000265
-0.000210
-0.000199
-0.000192
-0.000144
-0.000113
-0.000076
-0.000055
-0.000053
-0.000055
-0.000068
-0.000066
-0.000063
-0.000097
-0.000095
-0.000105
-0.000165
-0.000155
-0.000202
-0.000220
-0.000197
-0.000168
-0.000178
-0.000142
-0.000131
-0.000121
-0.000134
-0.000192
-0.000165
-0.000199
-0.000171
-0.000126
-0.000100
-0.000110
-0.000134
-0.000123
-0.000142
-0.000116
-0.000144
-0.000184
-0.000178
-0.000144
-0.000134
-0.000102
-0.000110
-0.000063
-0.000100
-0.000095
-0.000032
-0.000042
-0.000029
-0.000013
0.000003
-0.000024
-0.000042
-0.000060
-0.000105
-0.000155
-0.000231
-0.000228
-0.000210
-0.000213
-0.000234
-0.000236
-0.000215
-0.000186
-0.000226
-0.000173
-0.000116
-0.000121
-0.000121
-0.000102
-0.000053
-0.000053
-0.000081
-0.000095
-0.000102
-0.000063
-0.000058
-0.000050
-0.000042
-0.000050
-0.000058
-0.000100
-0.000084
-0.000095
-0.000118
-0.000100
-0.000097
-0.000105
-0.000116
-0.000134
-0.000084
-0.000100
-0.000050
-0.000011
-0.000013
-0.000042
-0.000045
-0.000034
-0.000063
-0.000089
-0.000108
-0.000097
-0.000089
-0.000102
-0.000126
-0.000126
-0.000097
-0.000110
-0.000126
-0.000084
-0.000123
-0.000168
-0.000173
-0.000142
-0.000147
-0.000136
-0.000092
-0.000042
-0.000013
-0.000018
-0.000024
-0.000042
-0.000013
-0.000005
-0.000037
-0.000108
-0.000123
-0.000181
-0.000207
-0.000241
-0.000268
-0.000265
-0.000239
-0.000194
-0.000142
-0.000110
-0.000131
-0.000087
-0.000116
-0.000157
-0.000168
-0.000168
-0.000178
-0.000168
-0.000181
-0.000121
-0.000087
-0.000079
-0.000095
-0.000063
-0.000074
-0.000079
-0.000076
-0.000021
-0.000024
-0.000005
0.000010
-0.000042
-0.000034
-0.000071
-0.000076
-0.000074
-0.000071
-0.000037
-0.000016
-0.000029
-0.000034
-0.000063
-0.000136
-0.000150
-0.000152
-0.000213
-0.000205
-0.000171
-0.000171
-0.000108
-0.000134
-0.000095
-0.000079
-0.000053
-0.000050
-0.000060
-0.000058
-0.000055
-0.000095
-0.000095
-0.000076
-0.000084
-0.000139
-0.000142
-0.000129
-0.000129
-0.000139
-0.000118
-0.000076
-0.000042
-0.000037
-0.000055
-0.000063
-0.000071
-0.000074
-0.000063
-0.000053
-0.000013
0.000013
-0.000000
0.000016
-0.000016
-0.000063
-0.000084
-0.000116
-0.000105
-0.000089
-0.000058
-0.000055
-0.000029
-0.000045
-0.000058
-0.000097
-0.000105
-0.000168
-0.000215
-0.000210
-0.000157
-0.000123
-0.000144
-0.000144
-0.000160
-0.000155
-0.000134
-0.000150
-0.000157
-0.000155
-0.000171
-0.000189
-0.000157
-0.000131
-0.000108
-0.000131
-0.000134
-0.000126
-0.000118
-0.000134
-0.000139
-0.000155
-0.000194
-0.000147
-0.000150
-0.000123
-0.000071
-0.000079
-0.000060
-0.000084
-0.000081
-0.000089
-0.000097
-0.000087
-0.000050
-0.000045
-0.000053
-0.000079
-0.000071
-0.000066
-0.000063
-0.000055
-0.000045
-0.000047
-0.000047
-0.000089
-0.000050
-0.000047
-0.000047
-0.000074
-0.000018
-0.000005
0.000013
0.000026
0.000010
0.000003
-0.000000
-0.000005
-0.000024
-0.000055
-0.000050
-0.000063
-0.000076
-0.000068
-0.000092
-0.000097
-0.000116
-0.000118
-0.000121
-0.000121
-0.000110
-0.000105
-0.000100
-0.000076
-0.000089
-0.000066
-0.000018
-0.000032
0.000005
-0.000011
0.000008
-0.000008
-0.000000
0.000010
0.000016
-0.000013
-0.000055
-0.000034
-0.000074
-0.000102
-0.000102
-0.000087
-0.000081
-0.000081
-0.000045
-0.000024
-0.000021
0.000003
0.000021
-0.000000
0.000021
-0.000003
0.000016
0.000018
0.000021
0.000029
0.000008
-0.000005
-0.000037
-0.000042
-0.000013
-0.000021
0.000010
0.000005
0.000031
0.000024
0.000003
-0.000026
0.000003
-0.000011
-0.000016
-0.000032
-0.000034
-0.000013
-0.000003
0.000042
0.000052
0.000037
0.000008
-0.000011
-0.000029
-0.000042
-0.000092
-0.000108
-0.000092
-0.000068
-0.000081
-0.000068
-0.000005
-0.000016
-0.000037
-0.000032
-0.000058
-0.000029
-0.000013
-0.000013
0.000031
0.000050
0.000039
0.000008
0.000003
-0.000011
-0.000000
0.000005
-0.000000
0.000005
-0.000011
-0.000013
-0.000050
-0.000079
-0.000089
-0.000047
-0.000034
-0.000018
-0.000005
-0.000008
0.000013
0.000058
0.000034
0.000024
0.000013
0.000031
0.000013
0.000016
0.000026
0.000037
0.000034
0.000055
0.000047
0.000052
0.000047
0.000042
0.000029
0.000013
0.000024
0.000066
0.000042
0.000081
0.000100
0.000052
0.000050
0.000068
0.000047
0.000063
0.000045
-0.000000
-0.000008
-0.000066
-0.000079
-0.000113
-0.000129
-0.000123
-0.000142
-0.000113
-0.000076
-0.000071
-0.000071
-0.000060
-0.000060
-0.000079
-0.000039
-0.000011
-0.000008
-0.000011
-0.000016
0.000016
-0.000005
-0.000018
0.000042
0.000045
-0.000005
-0.000018
-0.000021
-0.000013
-0.000016
-0.000024
-0.000037
-0.000047
-0.000026
-0.000071
-0.000050
-0.000021
-0.000026
0.000024
0.000063
0.000087
0.000079
0.000042
0.000063
0.000052
0.000021
-0.000029
-0.000026
-0.000013
-0.000039
-0.000050
-0.000045
-0.000047
-0.000063
-0.000074
-0.000092
-0.000068
-0.000021
-0.000024
-0.000003
-0.000005
-0.000013
0.000029
0.000010
-0.000000
0.000013
0.000008
-0.000005
-0.000034
-0.000037
-0.000058
-0.000034
-0.000005
0.000018
0.000008
0.000034
0.000047
0.000037
0.000021
0.000045
0.000045
0.000045
0.000042
0.000042
0.000013
-0.000003
0.000018
0.000047
0.000058
0.000079
0.000073
0.000066
0.000060
0.000042
0.000018
0.000008
-0.000032
-0.000024
-0.000021
-0.000066
-0.000071
-0.000066
-0.000074
-0.000089
-0.000024
-0.000003
-0.000013
0.000037
0.000050
0.000029
-0.000000
0.000034
0.000024
-0.000013
-0.000000
-0.000013
-0.000008
-0.000042
-0.000037
-0.000042
-0.000021
0.000005
0.000024
0.000047
-0.000011
-0.000000
-0.000021
-0.000016
-0.000016
-0.000032
-0.000008
-0.000000
0.000008
-0.000024
-0.000034
0.000003
0.000042
0.000050
0.000039
0.000060
0.000052
0.000063
0.000026
0.000079
0.000092
0.000060
0.000039
0.000084
0.000079
0.000029
0.000016
-0.000034
-0.000076
-0.000032
-0.000076
-0.000018
-0.000003
0.000010
0.000029
0.000058
0.000071
0.000092
0.000081
0.000055
0.000050
0.000021
-0.000013
-0.000011
-0.000005
-0.000032
-0.000045
-0.000058
-0.000008
0.000026
0.000034
0.000089
0.000087
0.000081
0.000066
0.000045
0.000021
0.000016
0.000026
-0.000000
0.000024
0.000063
0.000042
0.000058
0.000071
0.000039
0.000013
0.000029
-0.000005
0.000010
0.000013
0.000037
0.000037
0.000039
0.000047
0.000034
0.000003
0.000060
0.000047
0.000037
0.000045
0.000037
-0.000008
-0.000032
-0.000029
-0.000032
-0.000092
-0.000095
-0.000079
-0.000092
-0.000047
-0.000011
-0.000003
0.000031
0.000045
0.000063
0.000071
0.000026
0.000039
0.000058
0.000034
0.000066
0.000047
0.000068
0.000102
0.000100
0.000076
0.000084
0.000034
0.000016
0.000016
-0.000003
0.000003
0.000018
-0.000024
-0.000024
-0.000026
-0.000047
0.000008
0.000026
0.000034
0.000087
0.000058
0.000092
0.000089
0.000071
0.000047
0.000058
0.000037
0.000021
0.000037
0.000026
0.000039
0.000026
-0.000003
-0.000016
0.000013
-0.000005
0.000018
0.000024
0.000034
0.000076
0.000003
0.000018
0.000016
0.000003
-0.000000
-0.000005
-0.000042
-0.000021
-0.000021
-0.000045
0.000018
0.000047
0.000018
0.000052
0.000047
0.000050
0.000010
0.000018
0.000037
0.000060
0.000068
0.000050
0.000042
0.000010
0.000005
0.000024
0.000024
0.000071
0.000087
0.000079
0.000081
0.000094
0.000068
0.000042
0.000055
0.000039
-0.000011
-0.000016
-0.000021
-0.000055
-0.000047
-0.000039
-0.000005
-0.000008
-0.000011
0.000021
0.000003
0.000021
0.000039
0.000029
0.000010
0.000026
0.000037
0.000034
0.000050
0.000060
0.000071
0.000102
0.000097
0.000092
0.000060
0.000068
0.000073
0.000039
0.000029
0.000045
0.000045
0.000050
0.000076
0.000094
0.000071
0.000071
0.000073
0.000073
0.000045
0.000052
0.000060
0.000084
0.000092
0.000081
0.000068
0.000052
0.000045
0.000029
-0.000000
0.000060
0.000042
0.000050
0.000071
0.000063
0.000063
0.000079
0.000084
0.000097
0.000076
0.000071
0.000094
0.000115
0.000092
0.000102
0.000110
0.000084
0.000047
0.000052
0.000073
0.000092
0.000087
0.000052
0.000076
0.000039
-0.000003
0.000013
-0.000016
-0.000005
0.000005
0.000021
0.000031
0.000018
0.000060
0.000071
0.000084
0.000121
0.000108
0.000108
0.000113
0.000142
0.000131
0.000131
0.000134
0.000113
0.000081
0.000094
0.000050
0.000029
0.000026
0.000016
0.000005
0.000016
0.000052
0.000058
-0.000016
-0.000021
-0.000016
-0.000018
-0.000008
0.000050
0.000026
0.000034
0.000100
0.000060
0.000068
0.000071
0.000013
0.000039
0.000037
0.000005
-0.000021
-0.000024
-0.000000
-0.000003
-0.000032
0.000037
0.000026
-0.000000
-0.000003
0.000042
-0.000016
-0.000026
-0.000029
-0.000018
0.000021
0.000034
0.000045
0.000087
0.000066
0.000026
0.000034
0.000013
0.000018
0.000021
-0.000003
0.000050
0.000039
0.000071
0.000079
0.000129
0.000129
0.000121
0.000102
0.000108
0.000076
0.000097
0.000100
0.000066
0.000087
0.000047
0.000081
0.000068
0.000063
0.000066
0.000050
0.000034
0.000045
0.000031
0.000042
0.000084
0.000108
0.000121
0.000105
0.000136
0.000118
0.000136
0.000144
0.000144
0.000115
0.000147
0.000123
0.000102
0.000089
0.000081
0.000087
0.000079
0.000108
0.000113
0.000108
0.000115
0.000129
0.000115
0.000139
0.000100
0.000100
0.000121
0.000108
0.000100
0.000094
0.000076
0.000081
0.000058
0.000060
0.000071
0.000084
0.000052
0.000050
0.000066
0.000050
0.000068
0.000071
0.000063
0.000084
0.000084
0.000047
0.000081
0.000097
0.000100
0.000105
0.000131
0.000100
0.000076
0.000066
0.000084
0.000092
0.000055
0.000068
0.000102
0.000060
0.000102
0.000081
0.000047
0.000063
0.000079
0.000097
0.000129
0.000131
0.000118
0.000121
0.000126
0.000089
0.000076
0.000084
0.000081
0.000060
0.000055
0.000079
0.000066
0.000016
0.000029
0.000024
0.000047
0.000031
0.000024
0.000052
0.000073
0.000079
0.000073
0.000076
0.000089
0.000081
0.000076
0.000100
0.000126
0.000105
0.000108
0.000134
0.000102
0.000076
0.000084
0.000052
0.000031
0.000026
0.000021
0.000068
0.000071
0.000060
0.000029
0.000079
0.000071
0.000092
0.000058
0.000063
0.000063
0.000084
0.000079
0.000094
0.000084
0.000063
0.000063
0.000087
0.000089
0.000081
0.000066
0.000108
0.000087
0.000076
0.000087
0.000055
0.000094
0.000089
0.000100
0.000123
0.000113
0.000073
0.000110
0.000118
0.000115
0.000108
0.000089
0.000092
0.000073
0.000050
0.000100
0.000097
0.000100
0.000087
0.000073
0.000034
0.000039
0.000050
0.000029
0.000010
-0.000003
0.000045
0.000068
0.000055
0.000108
0.000113
0.000097
0.000129
0.000136
0.000131
0.000147
0.000105
0.000094
0.000079
0.000052
0.000042
0.000063
0.000045
0.000087
0.000087
0.000092
0.000071
0.000089
0.000063
0.000052
0.000076
0.000050
0.000079
0.000031
0.000055
0.000060
0.000052
0.000060
0.000050
0.000097
0.000060
0.000121
0.000087
0.000113
0.000123
0.000108
0.000079
0.000037
0.000037
0.000045
0.000021
0.000026
0.000087
0.000079
0.000066
0.000097
0.000100
0.000105
0.000108
0.000092
0.000100
0.000123
0.000123
0.000136
0.000147
0.000152
0.000149
0.000129
0.000126
0.000126
0.000118
0.000102
0.000136
0.000136
0.000121
0.000152
0.000129
0.000123
0.000094
0.000100
0.000071
0.000071
0.000097
0.000094
0.000060
0.000081
0.000073
0.000089
0.000105
0.000089
0.000110
0.000089
0.000105
0.000081
0.000068
0.000060
0.000071
0.000084
0.000073
0.000097
0.000102
0.000068
0.000076
0.000063
0.000105
0.000115
0.000108
0.000118
0.000094
0.000084
0.000102
0.000079
0.000100
0.000134
0.000100
0.000115
0.000084
0.000071
0.000084
0.000108
0.000094
0.000129
0.000123
0.000139
0.000142
0.000110
0.000129
0.000163
0.000139
0.000170
0.000168
0.000110
0.000129
0.000087
0.000042
0.000047
0.000039
0.000016
0.000050
0.000058
0.000047
0.000060
0.000029
0.000003
0.000039
0.000068
0.000100
0.000094
0.000118
0.000131
0.000113
0.000097
0.000079
0.000094
0.000039
0.000039
0.000063
0.000076
0.000058
0.000034
0.000031
0.000047
0.000016
0.000021
0.000063
0.000063
0.000045
0.000076
0.000092
0.000123
0.000123
0.000110
0.000152
0.000163
0.000126
0.000157
0.000165
0.000118
0.000129
0.000084
0.000084
0.000066
0.000045
0.000047
0.000045
0.000066
0.000060
0.000089
0.000089
0.000087
0.000071
0.000081
0.000131
0.000079
0.000129
0.000126
0.000139
0.000084
0.000105
0.000155
0.000134
0.000147
0.000126
0.000118
0.000094
0.000058
0.000055
0.000037
0.000029
0.000024
0.000018
0.000052
0.000089
0.000113
0.000121
0.000126
0.000152
0.000121
0.000123
0.000160
0.000168
0.000181
0.000212
0.000184
0.000168
0.000173
0.000157
0.000163
0.000165
0.000089
0.000058
0.000026
0.000003
0.000005
-0.000021
-0.000016
-0.000000
0.000045
0.000052
0.000073
0.000126
0.000110
0.000139
0.000105
0.000115
0.000136
0.000129
0.000149
0.000160
0.000157
0.000131
0.000102
0.000084
0.000092
0.000052
0.000071
0.000105
0.000110
0.000102
0.000071
0.000066
0.000087
0.000089
0.000081
0.000108
0.000123
0.000121
0.000147
0.000134
0.000136
0.000134
0.000079
0.000102
0.000105
0.000079
0.000076
0.000115
0.000094
0.000081
0.000058
0.000042
0.000024
0.000039
0.000029
0.000066
0.000094
0.000113
0.000144
0.000160
0.000170
0.000184
0.000139
0.000131
0.000147
0.000118
0.000097
0.000115
0.000081
0.000055
0.000073
0.000068
0.000055
0.000071
0.000084
0.000110
0.000123
0.000118
0.000160
0.000144
0.000121
0.000157
0.000139
0.000144
0.000147
0.000134
0.000131
0.000157
0.000121
0.000139
0.000105
0.000144
0.000131
0.000121
0.000157
0.000113
0.000131
0.000149
0.000131
0.000102
0.000081
0.000081
0.000076
0.000115
0.000110
0.000110
0.000136
0.000129
0.000118
0.000102
0.000131
0.000123
0.000147
0.000134
0.000115
0.000108
0.000105
0.000113
0.000092
0.000097
0.000115
0.000100
0.000063
0.000039
0.000071
0.000073
0.000084
0.000110
0.000123
0.000126
0.000176
0.000207
0.000184
0.000186
0.000163
0.000142
0.000105
0.000063
0.000060
0.000076
0.000108
0.000094
0.000092
0.000079
0.000134
0.000089
0.000089
0.000115
0.000131
0.000113
0.000108
0.000100
0.000108
0.000134
0.000113
0.000094
0.000097
0.000102
0.000115
0.000118
0.000142
0.000123
0.000134
0.000108
0.000094
0.000092
0.000063
0.000092
0.000089
0.000100
0.000131
0.000131
0.000113
0.000136
0.000147
0.000147
0.000170
0.000144
0.000163
0.000163
0.000163
0.000184
0.000165
0.000170
0.000176
0.000134
0.000129
0.000118
0.000105
0.000092
0.000079
0.000050
0.000071
0.000052
0.000050
0.000076
0.000079
0.000052
0.000058
0.000097
0.000094
0.000102
0.000105
0.000115
0.000134
0.000089
0.000092
0.000105
0.000121
0.000081
0.000087
0.000092
0.000079
0.000081
0.000084
0.000110
0.000147
0.000139
0.000165
0.000163
0.000170
0.000176
0.000147
0.000136
0.000144
0.000108
0.000102
0.000129
0.000126
0.000113
0.000076
0.000089
0.000087
0.000081
0.000079
0.000063
0.000037
0.000018
0.000008
0.000021
0.000068
0.000081
0.000102
0.000126
0.000126
0.000142
0.000121
0.000110
0.000131
0.000100
0.000115
0.000139
0.000121
0.000136
0.000115
0.000110
0.000139
0.000087
0.000097
0.000121
0.000131
0.000139
0.000147
0.000105
0.000131
0.000089
0.000058
0.000094
0.000118
0.000105
0.000142
0.000142
0.000155
0.000139
0.000115
0.000118
0.000094
0.000108
0.000113
0.000097
0.000126
0.000165
0.000144
0.000131
0.000165
0.000157
0.000149
0.000152
0.000189
0.000139
0.000139
0.000170
0.000113
0.000108
0.000134
0.000123
0.000144
0.000134
0.000131
0.000147
0.000136
0.000147
0.000142
0.000144
0.000142
0.000152
0.000131
0.000100
0.000131
0.000110
0.000163
0.000160
0.000139
0.000129
0.000121
0.000113
0.000113
0.000113
0.000123
0.000149
0.000134
0.000126
0.000129
0.000110
0.000129
0.000118
0.000081
0.000134
0.000115
0.000118
0.000142
0.000144
0.000160
0.000118
0.000123
0.000136
0.000168
0.000142
0.000152
0.000176
0.000147
0.000163
0.000121
0.000063
0.000115
0.000089
0.000079
0.000105
0.000118
0.000100
0.000102
0.000102
0.000066
0.000071
0.000089
0.000092
0.000102
0.000134
0.000144
0.000160
0.000170
0.000147
0.000149
0.000092
0.000118
0.000131
0.000102
0.000113
0.000126
0.000134
0.000144
0.000118
0.000131
0.000126
0.000136
0.000139
0.000149
0.000139
0.000157
0.000155
0.000149
0.000168
0.000147
0.000113
0.000134
0.000092
0.000089
0.000118
0.000102
0.000118
0.000118
0.000144
0.000139
0.000134
0.000142
0.000131
0.000129
0.000136
0.000176
0.000176
0.000168
0.000152
0.000152
0.000134
0.000142
0.000157
0.000142
0.000157
0.000155
0.000157
0.000147
0.000178
0.000184
0.000139
0.000134
0.000147
0.000157
0.000129
0.000121
0.000139
0.000105
0.000087
0.000097
0.000089
0.000092
0.000081
0.000060
0.000081
0.000105
0.000071
0.000110
0.000110
0.000121
0.000113
0.000129
0.000139
0.000134
0.000108
0.000131
0.000149
0.000155
0.000134
0.000163
0.000157
0.000152
0.000144
0.000149
0.000136
0.000110
0.000129
0.000136
0.000129
0.000136
0.000163
0.000139
0.000160
0.000157
0.000139
0.000207
0.000181
0.000170
0.000129
0.000155
0.000131
0.000139
0.000139
0.000147
0.000131
0.000079
0.000089
0.000126
0.000118
0.000115
0.000123
0.000152
0.000121
0.000136
0.000136
0.000173
0.000186
0.000163
0.000186
0.000197
0.000178
0.000194
0.000176
0.000160
0.000168
0.000155
0.000129
0.000139
0.000110
0.000131
0.000108
0.000076
0.000047
0.000029
0.000050
0.000076
0.000097
0.000100
0.000144
0.000121
0.000163
0.000144
0.000147
0.000121
0.000147
0.000144
0.000100
0.000115
0.000139
0.000176
0.000176
0.000152
0.000170
0.000173
0.000142
0.000173
0.000181
0.000173
0.000152
0.000126
0.000121
0.000149
0.000126
0.000142
0.000181
0.000170
0.000168
0.000160
0.000173
0.000157
0.000113
0.000118
0.000147
0.000149
0.000136
0.000173
0.000160
0.000168
0.000173
0.000181
0.000147
0.000147
0.000131
0.000152
0.000149
0.000176
0.000139
0.000131
0.000147
0.000149
0.000136
0.000108
0.000092
0.000087
0.000102
0.000113
0.000105
0.000118
0.000136
0.000131
0.000139
0.000126
0.000115
0.000152
0.000155
0.000178
0.000163
0.000155
0.000152
0.000131
0.000123
0.000123
0.000152
0.000147
0.000142
0.000176
0.000155
0.000155
0.000163
0.000163
0.000173
0.000163
0.000139
0.000149
0.000163
0.000163
0.000149
0.000149
0.000149
0.000199
0.000181
0.000165
0.000170
0.000173
0.000139
0.000139
0.000139
0.000123
0.000118
0.000147
0.000157
0.000165
0.000176
0.000189
0.000210
0.000176
0.000173
0.000139
0.000160
0.000134
0.000108
0.000115
0.000144
0.000149
0.000113
0.000108
0.000108
0.000139
0.000149
0.000126
0.000155
0.000144
0.000092
0.000073
0.000118
0.000105
0.000108
0.000131
0.000144
0.000181
0.000157
0.000163
0.000189
0.000136
0.000129
0.000163
0.000155
0.000144
0.000147
0.000147
0.000197
0.000157
0.000165
0.000165
0.000202
0.000173
0.000165
0.000181
0.000186
0.000176
0.000181
0.000184
0.000152
0.000115
0.000118
0.000144
0.000121
0.000118
0.000155
0.000108
0.000134
0.000149
0.000108
0.000144
0.000123
0.000121
0.000115
0.000102
0.000149
0.000176
0.000157
0.000136
0.000142
0.000113
0.000081
0.000068
0.000047
0.000060
0.000055
0.000063
0.000113
0.000108
0.000113
0.000131
0.000126
0.000100
0.000163
0.000149
0.000165
0.000194
0.000176
0.000160
0.000160
0.000144
0.000142
0.000149
0.000142
0.000155
0.000163
0.000142
0.000181
0.000210
0.000152
0.000207
0.000191
0.000176
0.000155
0.000129
0.000144
0.000163
0.000129
0.000142
0.000144
0.000142
0.000173
0.000136
0.000139
0.000160
0.000134
0.000087
0.000144
0.000157
0.000100
0.000102
0.000121
0.000105
0.000118
0.000126
0.000131
0.000181
0.000102
0.000113
0.000129
0.000131
0.000105
0.000113
0.000118
0.000139
0.000102
0.000115
0.000123
0.000121
0.000123
0.000126
0.000144
0.000152
0.000144
0.000136
0.000126
0.000144
0.000121
0.000123
0.000118
0.000118
0.000115
0.000123
0.000170
0.000149
0.000142
0.000181
0.000197
0.000197
0.000170
0.000176
0.000157
0.000176
0.000176
0.000173
0.000184
0.000181
0.000173
0.000155
0.000131
0.000105
0.000102
0.000110
0.000139
0.000155
0.000160
0.000176
0.000197
0.000170
0.000163
0.000155
0.000094
0.000084
0.000100
0.000102
0.000081
0.000139
0.000110
0.000118
0.000160
0.000144
0.000157
0.000165
0.000160
0.000189
0.000157
0.000194
0.000189
0.000170
0.000129
0.000142
0.000129
0.000134
0.000126
0.000134
0.000126
0.000134
0.000123
0.000134
0.000155
0.000147
0.000142
0.000186
0.000181
0.000184
0.000165
0.000149
0.000186
0.000163
0.000160
0.000186
0.000212
0.000173
0.000184
0.000212
0.000184
0.000184
0.000157
0.000144
0.000142
0.000160
0.000110
0.000136
0.000144
0.000160
0.000118
0.000115
0.000147
0.000105
0.000108
0.000155
0.000110
0.000113
0.000131
0.000131
0.000152
0.000160
0.000189
0.000186
0.000191
0.000205
0.000223
0.000223
0.000241
0.000215
0.000173
0.000170
0.000197
0.000144
0.000155
0.000168
0.000160
0.000160
0.000160
0.000165
0.000155
0.000134
0.000157
0.000157
0.000131
0.000123
0.000147
0.000123
0.000115
0.000181
0.000144
0.000129
0.000152
0.000118
0.000097
0.000113
0.000110
0.000115
0.000118
0.000126
0.000131
0.000123
0.000136
0.000155
0.000139
0.000176
0.000184
0.000144
0.000163
0.000181
0.000129
0.000129
0.000142
0.000142
0.000160
0.000165
0.000184
0.000173
0.000149
0.000176
0.000184
0.000168
0.000155
0.000152
0.000136
0.000176
0.000147
0.000115
0.000163
0.000181
0.000160
0.000163
0.000184
0.000181
0.000152
0.000142
0.000170
0.000178
0.000160
0.000178
0.000168
0.000152
0.000147
0.000152
0.000136
0.000142
0.000165
0.000142
0.000157
0.000165
0.000113
0.000139
0.000144
0.000108
0.000136
0.000149
0.000165
0.000144
0.000160
0.000181
0.000189
0.000199
0.000194
0.000199
0.000168
0.000194
0.000170
0.000170
0.000181
0.000191
0.000155
0.000173
0.000170
0.000149
0.000113
0.000157
0.000170
0.000142
0.000131
0.000144
0.000134
0.000105
0.000110
0.000163
0.000126
0.000144
0.000149
0.000131
0.000165
0.000157
0.000131
0.000144
0.000131
0.000139
0.000129
0.000168
0.000181
0.000170
0.000152
0.000178
0.000199
0.000163
0.000165
0.000202
0.000165
0.000170
0.000149
0.000108
0.000108
0.000147
0.000121
0.000121
0.000129
0.000129
0.000129
0.000131
0.000163
0.000176
0.000160
0.000170
0.000160
0.000176
0.000147
0.000168
0.000157
0.000163
0.000184
0.000149
0.000163
0.000184
0.000176
0.000186
0.000186
0.000173
0.000129
0.000157
0.000163
0.000178
0.000139
0.000136
0.000144
0.000165
0.000139
0.000160
0.000139
0.000160
0.000165
0.000163
0.000191
0.000207
0.000168
0.000178
0.000210
0.000194
0.000184
0.000157
0.000149
0.000152
0.000126
0.000144
0.000134
0.000100
0.000084
0.000129
0.000110
0.000157
0.000178
0.000173
0.000178
0.000199
0.000155
0.000149
0.000181
0.000155
0.000139
0.000115
0.000157
0.000152
0.000126
0.000176
0.000165
0.000163
0.000170
0.000205
0.000176
0.000157
0.000202
0.000194
0.000170
0.000199
0.000181
0.000189
0.000163
0.000152
0.000113
0.000118
0.000157
0.000160
0.000168
0.000189
0.000191
0.000178
0.000170
0.000176
0.000165
0.000197
0.000189
0.000186
0.000165
0.000181
0.000186
0.000170
0.000173
0.000160
0.000163
0.000149
0.000181
0.000194
0.000165
0.000178
0.000173
0.000142
0.000165
0.000139
0.000152
0.000184
0.000170
0.000184
0.000178
0.000212
0.000168
0.000160
0.000168
0.000176
0.000136
0.000134
0.000170
0.000181
0.000160
0.000160
0.000181
0.000173
0.000147
0.000168
0.000155
0.000163
0.000149
0.000170
0.000184
0.000194
0.000199
0.000176
0.000176
0.000194
0.000173
0.000165
0.000168
0.000186
0.000155
0.000152
0.000165
0.000129
0.000110
0.000149
0.000142
0.000155
0.000176
0.000149
0.000157
0.000142
0.000144
0.000142
0.000155
0.000157
0.000142
0.000134
0.000160
0.000168
0.000152
0.000155
0.000184
0.000160
0.000181
0.000223
0.000178
0.000181
0.000199
0.000189
0.000181
0.000189
0.000207
0.000197
0.000186
0.000212
0.000207
0.000215
0.000205
0.000197
0.000176
0.000176
0.000152
0.000131
0.000121
0.000063
0.000076
0.000076
0.000068
0.000108
0.000115
0.000129
0.000134
0.000142
0.000163
0.000142
0.000147
0.000165
0.000157
0.000184
0.000165
0.000176
0.000181
0.000205
0.000181
0.000139
0.000126
0.000139
0.000108
0.000110
0.000100
0.000139
0.000121
0.000131
0.000102
0.000136
0.000118
0.000134
0.000168
0.000170
0.000181
0.000152
0.000194
0.000173
0.000142
0.000157
0.000189
0.000170
0.000178
0.000186
0.000186
0.000194
0.000199
0.000168
0.000181
0.000142
0.000126
0.000126
0.000160
0.000176
0.000134
0.000170
0.000142
0.000121
0.000134
0.000131
0.000149
0.000142
0.000149
0.000152
0.000152
0.000147
0.000170
0.000152
0.000152
0.000170
0.000165
0.000186
0.000184
0.000163
0.000168
0.000144
0.000144
0.000165
0.000144
0.000168
0.000176
0.000178
0.000186
0.000191
0.000178
0.000181
0.000170
0.000131
0.000152
0.000134
0.000110
0.000136
0.000165
0.000176
0.000160
0.000168
0.000165
0.000152
0.000160
0.000152
0.000144
0.000136
0.000139
0.000147
0.000149
0.000157
0.000157
0.000152
0.000144
0.000155
0.000134
0.000134
0.000155
0.000170
0.000157
0.000170
0.000191
0.000194
0.000191
0.000178
0.000176
0.000163
0.000168
0.000184
0.000176
0.000207
0.000176
0.000147
0.000170
0.000181
0.000118
0.000149
0.000126
0.000160
0.000152
0.000144
0.000147
0.000131
0.000097
0.000087
0.000081
0.000110
0.000092
0.000142
0.000136
0.000194
0.000181
0.000210
0.000239
0.000233
0.000194
0.000191
0.000191
0.000194
0.000194
0.000184
0.000191
0.000186
0.000147
0.000191
0.000212
0.000197
0.000186
0.000212
0.000181
0.000194
0.000163
0.000207
0.000178
0.000181
0.000197
0.000186
0.000189
0.000218
0.000220
0.000207
0.000207
0.000168
0.000178
0.000197
0.000168
0.000131
0.000126
0.000144
0.000136
0.000149
0.000147
0.000191
0.000168
0.000157
0.000160
0.000173
0.000160
0.000149
0.000155
0.000181
0.000178
0.000152
0.000121
0.000157
0.000160
0.000165
0.000165
0.000178
0.000191
0.000186
0.000202
0.000197
0.000178
0.000194
0.000191
0.000223
0.000210
0.000207
0.000176
0.000176
0.000205
0.000157
0.000199
0.000168
0.000191
0.000199
0.000163
0.000178
0.000205
0.000189
0.000160
0.000165
0.000184
0.000202
0.000186
0.000165
0.000223
0.000205
0.000194
0.000181
0.000194
0.000168
0.000136
0.000131
0.000105
0.000129
0.000094
0.000147
0.000152
0.000142
0.000134
0.000113
0.000113
0.000142
0.000100
0.000149
0.000163
0.000181
0.000178
0.000176
0.000144
0.000165
0.000147
0.000126
0.000152
0.000155
0.000149
0.000189
0.000184
0.000194
0.000184
0.000197
0.000205
0.000178
0.000170
0.000197
0.000194
0.000191
0.000170
0.000178
0.000168
0.000189
0.000197
0.000184
0.000199
0.000220
0.000178
0.000202
0.000207
0.000181
0.000191
0.000170
0.000170
0.000181
0.000139
0.000184
0.000170
0.000181
0.000170
0.000186
0.000202
0.000191
0.000194
0.000184
0.000184
0.000189
0.000178
0.000152
0.000160
0.000186
0.000176
0.000155
0.000199
0.000176
0.000165
0.000149
0.000165
0.000165
0.000173
0.000176
0.000218
0.000181
0.000194
0.000210
0.000202
0.000181
0.000165
0.000163
0.000191
0.000163
0.000144
0.000170
0.000160
0.000184
0.000160
0.000165
0.000178
0.000165
0.000155
0.000160
0.000170
0.000168
0.000176
0.000184
0.000207
0.000197
0.000173
0.000165
0.000170
0.000157
0.000170
0.000170
0.000176
0.000186
0.000155
0.000176
0.000178
0.000168
0.000149
0.000194
0.000191
0.000210
0.000178
0.000197
0.000176
0.000191
0.000170
0.000136
0.000176
0.000155
0.000176
0.000176
0.000152
0.000152
0.000147
0.000191
0.000155
0.000181
0.000189
0.000215
0.000202
0.000194
0.000199
0.000173
0.000191
0.000189
0.000173
0.000205
0.000205
0.000197
0.000199
0.000205
0.000197
0.000194
0.000199
0.000194
0.000202
0.000186
0.000184
0.000184
0.000194
0.000186
0.000165
0.000126
0.000108
0.000144
0.000115
0.000142
0.000129
0.000163
0.000134
0.000126
0.000142
0.000142
0.000126
0.000144
0.000123
0.000168
0.000144
0.000189
0.000184
0.000191
0.000184
0.000173
0.000176
0.000173
0.000170
0.000181
0.000176
0.000170
0.000149
0.000170
0.000173
0.000170
0.000168
0.000189
0.000194
0.000197
0.000173
0.000181
0.000176
0.000194
0.000178
0.000152
0.000160
0.000157
0.000149
0.000134
0.000155
0.000155
0.000139
0.000168
0.000149
0.000176
0.000163
0.000194
0.000194
0.000197
0.000189
0.000215
0.000199
0.000165
0.000186
0.000155
0.000136
0.000160
0.000144
0.000131
0.000165
0.000155
0.000147
0.000212
0.000178
0.000178
0.000168
0.000184
0.000163
0.000147
0.000157
0.000170
0.000157
0.000155
0.000170
0.000170
0.000160
0.000165
0.000165
0.000139
0.000173
0.000168
0.000168
0.000178
0.000165
0.000147
0.000152
0.000173
0.000123
0.000092
0.000102
0.000155
0.000142
0.000149
0.000173
0.000181
0.000184
0.000197
0.000186
0.000144
0.000178
0.000170
0.000134
0.000152
0.000155
0.000121
0.000149
0.000123
0.000149
0.000134
0.000142
0.000176
0.000178
0.000152
0.000168
0.000176
0.000160
0.000181
0.000181
0.000176
0.000197
0.000197
0.000194
0.000184
0.000191
0.000191
0.000205
0.000194
0.000218
0.000186
0.000163
0.000189
0.000194
0.000155
0.000147
0.000147
0.000144
0.000165
0.000165
0.000134
0.000136
0.000123
0.000142
0.000149
0.000165
0.000165
0.000173
0.000176
0.000178
0.000176
0.000136
0.000160
0.000173
0.000144
0.000197
0.000207
0.000165
0.000170
0.000152
0.000129
0.000123
0.000144
0.000108
0.000136
0.000155
0.000157
0.000184
0.000189
0.000178
0.000184
0.000160
0.000199
0.000202
0.000186
0.000194
0.000223
0.000178
0.000202
0.000205
0.000189
0.000173
0.000178
0.000191
0.000170
0.000152
0.000113
0.000100
0.000139
0.000163
0.000147
0.000160
0.000181
0.000168
0.000170
0.000165
0.000207
0.000176
0.000163
0.000189
0.000178
0.000165
0.000168
0.000155
0.000147
0.000194
0.000189
0.000178
0.000176
0.000181
0.000207
0.000173
0.000181
0.000163
0.000165
0.000184
0.000181
0.000173
0.000191
0.000181
0.000184
0.000170
0.000173
0.000160
0.000163
0.000170
0.000131
0.000144
0.000157
0.000147
0.000170
0.000178
0.000176
0.000226
0.000173
0.000176
0.000197
0.000186
0.000199
0.000197
0.000212
0.000210
0.000218
0.000178
0.000157
0.000163
0.000165
0.000139
0.000155
0.000181
0.000176
0.000178
0.000189
0.000173
0.000131
0.000170
0.000184
0.000134
0.000144
0.000168
0.000163
0.000168
0.000160
0.000163
0.000186
0.000184
0.000157
0.000197
0.000176
0.000155
0.000152
0.000113
0.000134
0.000121
0.000115
0.000155
0.000163
0.000173
0.000178
0.000189
0.000165
0.000170
0.000189
0.000170
0.000163
0.000176
0.000184
0.000178
0.000181
0.000202
0.000191
0.000189
0.000199
0.000186
0.000178
0.000176
0.000186
0.000160
0.000184
0.000197
0.000160
0.000170
0.000157
0.000139
0.000142
0.000157
0.000149
0.000123
0.000121
0.000142
0.000155
0.000181
0.000184
0.000205
0.000202
0.000194
0.000186
0.000199
0.000191
0.000189
0.000178
0.000186
0.000186
0.000170
0.000155
0.000202
0.000194
0.000176
0.000163
0.000173
0.000152
0.000142
0.000152
0.000212
0.000189
0.000181
0.000210
0.000194
0.000210
0.000191
0.000197
0.000220
0.000210
0.000186
0.000207
0.000220
0.000181
0.000170
0.000160
0.000194
0.000176
0.000170
0.000189
0.000197
0.000176
0.000165
0.000189
0.000178
0.000155
0.000186
0.000176
0.000163
0.000181
0.000170
0.000205
0.000194
0.000184
0.000173
0.000181
0.000199
0.000189
0.000194
0.000189
0.000218
0.000178
0.000197
0.000231
0.000186
0.000170
0.000226
0.000178
0.000178
0.000184
0.000181
0.000178
0.000189
0.000189
0.000197
0.000199
0.000212
0.000212
0.000197
0.000215
0.000228
0.000202
0.000186
0.000210
0.000184
0.000170
0.000212
0.000218
0.000223
0.000228
0.000223
0.000210
0.000194
0.000218
0.000189
0.000184
0.000199
0.000186
0.000163
0.000157
0.000157
0.000157
0.000144
0.000155
0.000152
0.000170
0.000191
0.000173
0.000178
0.000178
0.000168
0.000136
0.000176
0.000184
0.000144
0.000173
0.000210
0.000199
0.000176
0.000197
0.000218
0.000215
0.000202
0.000186
0.000186
0.000178
0.000163
0.000181
0.000199
0.000205
0.000191
0.000176
0.000160
0.000194
0.000165
0.000170
0.000197
0.000199
0.000163
0.000189
0.000186
0.000191
0.000181
0.000186
0.000184
0.000173
0.000205
0.000197
0.000189
0.000199
0.000194
0.000189
0.000194
0.000205
0.000178
0.000168
0.000191
0.000163
0.000173
0.000181
0.000189
0.000173
0.000131
0.000189
0.000199
0.000181
0.000197
0.000197
0.000186
0.000223
0.000191
0.000194
0.000199
0.000165
0.000152
0.000176
0.000181
0.000189
0.000178
0.000163
0.000178
0.000170
0.000165
0.000194
0.000191
0.000189
0.000184
0.000170
0.000176
0.000202
0.000207
0.000181
0.000207
0.000199
0.000184
0.000176
0.000149
0.000160
0.000139
0.000126
0.000155
0.000160
0.000168
0.000147
0.000173
0.000181
0.000173
0.000160
0.000157
0.000176
0.000149
0.000134
0.000163
0.000173
0.000157
0.000168
0.000184
0.000191
0.000170
0.000173
0.000210
0.000152
0.000147
0.000139
0.000173
0.000178
0.000147
0.000152
0.000155
0.000165
0.000178
0.000147
0.000191
0.000181
0.000186
0.000184
0.000212
0.000191
0.000186
0.000149
0.000176
0.000173
0.000173
0.000181
0.000176
0.000163
0.000181
0.000191
0.000186
0.000202
0.000197
0.000163
0.000205
0.000194
0.000155
0.000178
0.000199
0.000186
0.000149
0.000202
0.000202
0.000184
0.000186
0.000168
0.000181
0.000176
0.000142
0.000165
0.000181
0.000189
0.000226
0.000199
0.000202
0.000197
0.000142
0.000165
0.000215
0.000147
0.000176
0.000197
0.000223
0.000189
0.000194
0.000181
0.000199
0.000194
0.000178
0.000189
0.000178
0.000163
0.000170
0.000134
0.000123
0.000155
0.000084
0.000087
0.000087
0.000084
0.000092
0.000115
0.000131
0.000155
0.000152
0.000186
0.000173
0.000191
0.000191
0.000194
0.000191
0.000199
0.000178
0.000194
0.000199
0.000220
0.000199
0.000194
0.000205
0.000220
0.000207
0.000199
0.000226
0.000215
0.000199
0.000178
0.000207
0.000215
0.000165
0.000181
0.000199
0.000191
0.000147
0.000152
0.000191
0.000189
0.000178
0.000178
0.000168
0.000165
0.000144
0.000178
0.000181
0.000189
0.000170
0.000186
0.000186
0.000184
0.000176
0.000210
0.000184
0.000168
0.000144
0.000139
0.000178
0.000170
0.000168
0.000178
0.000181
0.000178
0.000189
0.000199
0.000202
0.000184
0.000178
0.000199
0.000218
0.000197
0.000199
0.000223
0.000215
0.000260
0.000220
0.000210
0.000189
0.000178
0.000191
0.000186
0.000194
0.000189
0.000160
0.000191
0.000184
0.000194
0.000181
0.000199
0.000194
0.000212
0.000207
0.000212
0.000197
0.000202
0.000236
0.000189
0.000191
0.000223
0.000165
0.000176
0.000194
0.000191
t0(sec) = 0.000000E+0
dt(sec) = 4.000000E-10
F2:INSP "
DESCRIPTOR_NAME    : WAVEDESC           
TEMPLATE_NAME      : LECROY_2_3         
COMM_TYPE          : word               
COMM_ORDER         : HIFIRST            
WAVE_DESCRIPTOR    : 346                
USER_TEXT          : 0                  
RES_DESC1          : 0                  
TRIGTIME_ARRAY     : 0                  
RIS_TIME_ARRAY     : 0                  
RES_ARRAY1         : 0                  
WAVE_ARRAY_1       : 10002              
WAVE_ARRAY_2       : 0                  
RES_ARRAY2         : 0                  
RES_ARRAY3         : 0                  
INSTRUMENT_NAME    : LECROYHDO6104      
INSTRUMENT_NUMBER  : 6308               
TRACE_LABEL        :                    
RESERVED1          : 5001               
RESERVED2          : 0                  
WAVE_ARRAY_COUNT   : 5001               
PNTS_PER_SCREEN    : 5000               
FIRST_VALID_PNT    : 0                  
LAST_VALID_PNT     : 5000               
FIRST_POINT        : 0                  
SPARSING_FACTOR    : 1                  
SEGMENT_INDEX      : 0                  
SUBARRAY_COUNT     : 1                  
SWEEPS_PER_ACQ     : 200                
POINTS_PER_PAIR    : 0                  
PAIR_OFFSET        : 0                  
VERTICAL_GAIN      : 2.6238e-006        
VERTICAL_OFFSET    : 4.2500e-002        
MAX_VALUE          : 3.2512e+004        
MIN_VALUE          : -2.5373e+004       
NOMINAL_BITS       : 16                 
NOM_SUBARRAY_COUNT : 1                  
HORIZ_INTERVAL     : 4.0000e-010        
HORIZ_OFFSET       : -2.00000000e-007   
PIXEL_OFFSET       : -2.00000000e-007   
VERTUNIT           : Unit Name = V
HORUNIT            : Unit Name = S
HORIZ_UNCERTAINTY  : 1.0000e-012        
TRIGGER_TIME       : Date = APR 17, 2024, Time = 19:19:54.444956283
ACQ_DURATION       : 9.9988e+000        
RECORD_TYPE        : single_sweep       
PROCESSING_DONE    : no_processing      
RESERVED5          : 0                  
RIS_SWEEPS         : 1                  
TIMEBASE           : 200_ns/div         
VERT_COUPLING      : DC_50_Ohms         
PROBE_ATT          : 1.0000e+000        
FIXED_VERT_GAIN    : 20_mV/div          
BANDWIDTH_LIMIT    : off                
VERTICAL_VERNIER   : 1.0500e+000        
ACQ_VERT_OFFSET    : 0.0000e+000        
WAVE_SOURCE        : UNKNOWN            
"
0.001359
0.001396
0.001396
0.001388
0.001385
0.001383
0.001409
0.001388
0.001388
0.001412
0.001370
0.001401
0.001380
0.001393
0.001383
0.001425
0.001377
0.001370
0.001401
0.001398
0.001375
0.001385
0.001404
0.001391
0.001388
0.001375
0.001385
0.001385
0.001372
0.001385
0.001375
0.001401
0.001370
0.001346
0.001372
0.001364
0.001383
0.001372
0.001370
0.001351
0.001356
0.001359
0.001375
0.001380
0.001367
0.001401
0.001391
0.001380
0.001377
0.001391
0.001377
0.001404
0.001377
0.001349
0.001359
0.001391
0.001370
0.001372
0.001396
0.001391
0.001338
0.001367
0.001377
0.001383
0.001338
0.001393
0.001383
0.001406
0.001388
0.001383
0.001404
0.001406
0.001398
0.001393
0.001417
0.001401
0.001362
0.001359
0.001404
0.001412
0.001388
0.001375
0.001391
0.001354
0.001328
0.001351
0.001354
0.001364
0.001377
0.001388
0.001409
0.001419
0.001417
0.001404
0.001419
0.001380
0.001372
0.001367
0.001388
0.001364
0.001354
0.001370
0.001377
0.001391
0.001362
0.001396
0.001388
0.001401
0.001383
0.001388
0.001391
0.001375
0.001391
0.001343
0.001362
0.001404
0.001364
0.001370
0.001388
0.001388
0.001351
0.001364
0.001404
0.001383
0.001370
0.001383
0.001401
0.001401
0.001377
0.001398
0.001393
0.001396
0.001377
0.001367
0.001383
0.001377
0.001396
0.001383
0.001388
0.001364
0.001370
0.001364
0.001412
0.001380
0.001356
0.001385
0.001393
0.001401
0.001367
0.001396
0.001398
0.001404
0.001388
0.001391
0.001404
0.001391
0.001388
0.001370
0.001377
0.001393
0.001377
0.001349
0.001375
0.001388
0.001362
0.001412
0.001398
0.001380
0.001338
0.001338
0.001354
0.001364
0.001364
0.001372
0.001385
0.001401
0.001380
0.001380
0.001412
0.001406
0.001393
0.001383
0.001401
0.001393
0.001364
0.001346
0.001385
0.001391
0.001364
0.001391
0.001370
0.001393
0.001383
0.001364
0.001375
0.001398
0.001367
0.001404
0.001406
0.001409
0.001398
0.001388
0.001393
0.001414
0.001380
0.001393
0.001396
0.001391
0.001396
0.001385
0.001398
0.001393
0.001391
0.001393
0.001393
0.001404
0.001377
0.001396
0.001422
0.001393
0.001356
0.001391
0.001401
0.001375
0.001388
0.001362
0.001404
0.001393
0.001388
0.001391
0.001367
0.001370
0.001380
0.001377
0.001396
0.001406
0.001385
0.001356
0.001396
0.001417
0.001383
0.001396
0.001391
0.001377
0.001406
0.001393
0.001391
0.001393
0.001380
0.001401
0.001391
0.001391
0.001375
0.001375
0.001396
0.001388
0.001383
0.001409
0.001396
0.001404
0.001385
0.001385
0.001396
0.001404
0.001385
0.001398
0.001393
0.001377
0.001391
0.001393
0.001388
0.001393
0.001404
0.001401
0.001398
0.001433
0.001385
0.001380
0.001380
0.001419
0.001377
0.001380
0.001409
0.001404
0.001383
0.001385
0.001401
0.001398
0.001380
0.001383
0.001375
0.001409
0.001404
0.001385
0.001406
0.001401
0.001391
0.001385
0.001417
0.001406
0.001370
0.001391
0.001385
0.001401
0.001391
0.001377
0.001412
0.001375
0.001404
0.001406
0.001409
0.001414
0.001401
0.001398
0.001404
0.001417
0.001396
0.001377
0.001388
0.001417
0.001401
0.001377
0.001409
0.001417
0.001367
0.001377
0.001380
0.001412
0.001375
0.001401
0.001404
0.001412
0.001401
0.001419
0.001393
0.001398
0.001364
0.001367
0.001380
0.001393
0.001372
0.001372
0.001396
0.001396
0.001391
0.001391
0.001406
0.001414
0.001391
0.001388
0.001414
0.001385
0.001383
0.001396
0.001377
0.001393
0.001385
0.001393
0.001372
0.001404
0.001372
0.001383
0.001406
0.001396
0.001380
0.001383
0.001377
0.001409
0.001385
0.001383
0.001370
0.001370
0.001383
0.001393
0.001383
0.001409
0.001380
0.001385
0.001383
0.001398
0.001391
0.001380
0.001404
0.001393
0.001372
0.001377
0.001396
0.001391
0.001367
0.001372
0.001388
0.001425
0.001393
0.001401
0.001406
0.001388
0.001367
0.001377
0.001377
0.001412
0.001385
0.001398
0.001406
0.001388
0.001375
0.001385
0.001388
0.001383
0.001372
0.001401
0.001362
0.001412
0.001398
0.001406
0.001377
0.001364
0.001349
0.001351
0.001377
0.001404
0.001367
0.001377
0.001388
0.001370
0.001338
0.001364
0.001349
0.001349
0.001343
0.001383
0.001391
0.001401
0.001396
0.001372
0.001383
0.001388
0.001398
0.001412
0.001404
0.001406
0.001370
0.001359
0.001335
0.001362
0.001372
0.001398
0.001433
0.001425
0.001396
0.001433
0.001377
0.001393
0.001404
0.001409
0.001401
0.001370
0.001367
0.001375
0.001385
0.001427
0.001409
0.001417
0.001404
0.001419
0.001367
0.001370
0.001398
0.001443
0.001443
0.001438
0.001443
0.001417
0.001396
0.001377
0.001372
0.001338
0.001333
0.001314
0.001338
0.001401
0.001393
0.001393
0.001427
0.001453
0.001422
0.001409
0.001417
0.001393
0.001341
0.001338
0.001375
0.001375
0.001398
0.001406
0.001440
0.001430
0.001427
0.001404
0.001396
0.001367
0.001346
0.001362
0.001393
0.001396
0.001388
0.001362
0.001375
0.001380
0.001380
0.001425
0.001438
0.001396
0.001359
0.001349
0.001351
0.001367
0.001383
0.001435
0.001435
0.001443
0.001430
0.001409
0.001430
0.001453
0.001414
0.001380
0.001383
0.001346
0.001330
0.001351
0.001370
0.001398
0.001417
0.001433
0.001425
0.001383
0.001391
0.001409
0.001388
0.001385
0.001375
0.001349
0.001343
0.001328
0.001338
0.001377
0.001446
0.001459
0.001398
0.001433
0.001427
0.001427
0.001391
0.001417
0.001401
0.001359
0.001330
0.001309
0.001293
0.001249
0.001178
0.001128
0.001013
0.000787
0.000407
-0.000063
-0.000703
-0.001546
-0.002372
-0.003199
-0.004070
-0.004639
-0.005164
-0.005791
-0.006423
-0.006762
-0.006914
-0.007105
-0.007087
-0.006948
-0.007027
-0.007402
-0.007533
-0.007365
-0.007226
-0.007313
-0.007352
-0.007174
-0.006790
-0.006182
-0.005744
-0.005573
-0.005696
-0.005807
-0.005841
-0.005786
-0.005712
-0.005639
-0.005382
-0.005009
-0.004872
-0.004977
-0.005030
-0.004928
-0.004794
-0.004720
-0.004563
-0.004256
-0.004085
-0.004028
-0.003896
-0.003763
-0.003807
-0.003815
-0.003705
-0.003524
-0.003621
-0.003862
-0.003881
-0.003663
-0.003605
-0.003681
-0.003710
-0.003555
-0.003456
-0.003248
-0.003033
-0.003075
-0.003248
-0.003191
-0.002986
-0.002868
-0.002886
-0.002829
-0.002676
-0.002624
-0.002569
-0.002469
-0.002461
-0.002598
-0.002689
-0.002689
-0.002808
-0.002983
-0.003083
-0.003080
-0.003088
-0.003049
-0.002881
-0.002642
-0.002571
-0.002550
-0.002293
-0.002102
-0.002120
-0.002249
-0.002346
-0.002393
-0.002267
-0.002034
-0.001978
-0.001986
-0.001900
-0.001824
-0.001774
-0.001858
-0.002055
-0.002125
-0.002112
-0.002123
-0.002146
-0.002222
-0.002301
-0.002283
-0.002180
-0.002133
-0.002073
-0.002036
-0.001915
-0.001839
-0.001960
-0.001999
-0.001939
-0.001805
-0.001719
-0.001572
-0.001593
-0.001629
-0.001645
-0.001758
-0.002107
-0.002388
-0.002362
-0.002146
-0.002070
-0.002233
-0.002466
-0.002634
-0.002532
-0.002146
-0.001790
-0.001553
-0.001496
-0.001569
-0.001530
-0.001404
-0.001451
-0.001729
-0.001803
-0.001490
-0.001160
-0.001128
-0.001186
-0.001110
-0.001134
-0.001281
-0.001456
-0.001438
-0.001438
-0.001695
-0.001879
-0.001795
-0.001713
-0.001821
-0.001837
-0.001619
-0.001517
-0.001643
-0.001734
-0.001690
-0.001811
-0.001839
-0.001755
-0.001671
-0.001640
-0.001695
-0.001826
-0.001879
-0.001910
-0.001800
-0.001608
-0.001451
-0.001498
-0.001511
-0.001454
-0.001325
-0.001246
-0.001189
-0.001152
-0.001212
-0.001320
-0.001404
-0.001433
-0.001427
-0.001375
-0.001427
-0.001504
-0.001388
-0.001225
-0.001128
-0.001089
-0.001018
-0.001050
-0.001057
-0.001152
-0.001110
-0.001092
-0.001210
-0.001299
-0.001451
-0.001456
-0.001435
-0.001307
-0.001071
-0.001015
-0.001042
-0.001026
-0.000971
-0.001044
-0.001118
-0.001068
-0.000939
-0.000929
-0.000858
-0.000769
-0.000785
-0.000953
-0.001084
-0.001191
-0.001291
-0.001328
-0.001299
-0.001252
-0.001275
-0.001299
-0.001183
-0.001149
-0.001354
-0.001527
-0.001288
-0.000953
-0.000926
-0.001105
-0.001228
-0.001228
-0.001191
-0.001149
-0.001084
-0.000974
-0.000903
-0.000884
-0.000842
-0.000871
-0.001047
-0.001094
-0.000981
-0.000929
-0.000813
-0.000667
-0.000601
-0.000653
-0.000737
-0.000792
-0.000863
-0.000950
-0.000834
-0.000695
-0.000643
-0.000745
-0.000750
-0.000743
-0.000785
-0.000834
-0.000779
-0.000771
-0.000774
-0.000861
-0.000950
-0.001076
-0.001225
-0.001309
-0.001291
-0.001089
-0.000834
-0.000803
-0.000858
-0.000795
-0.000651
-0.000743
-0.000890
-0.000989
-0.001107
-0.001328
-0.001462
-0.001296
-0.001097
-0.001052
-0.000958
-0.000811
-0.000779
-0.000816
-0.000866
-0.000884
-0.000916
-0.000968
-0.000976
-0.000953
-0.000821
-0.000764
-0.000711
-0.000690
-0.000667
-0.000730
-0.000745
-0.000732
-0.000861
-0.001199
-0.001231
-0.001115
-0.001042
-0.001010
-0.000879
-0.000939
-0.001134
-0.001139
-0.000911
-0.000890
-0.000958
-0.000887
-0.000761
-0.000685
-0.000651
-0.000583
-0.000598
-0.000619
-0.000614
-0.000680
-0.000748
-0.000829
-0.000937
-0.001097
-0.001210
-0.001162
-0.001005
-0.000981
-0.000929
-0.000753
-0.000548
-0.000506
-0.000538
-0.000682
-0.000803
-0.000806
-0.000701
-0.000735
-0.000895
-0.000971
-0.000834
-0.000714
-0.000622
-0.000525
-0.000535
-0.000651
-0.000659
-0.000622
-0.000530
-0.000488
-0.000548
-0.000745
-0.000819
-0.000724
-0.000538
-0.000388
-0.000320
-0.000354
-0.000457
-0.000514
-0.000535
-0.000695
-0.000958
-0.000981
-0.000884
-0.000685
-0.000412
-0.000325
-0.000409
-0.000417
-0.000360
-0.000396
-0.000485
-0.000512
-0.000467
-0.000501
-0.000562
-0.000596
-0.000656
-0.000732
-0.000790
-0.000740
-0.000656
-0.000719
-0.000795
-0.000774
-0.000750
-0.000785
-0.000769
-0.000682
-0.000593
-0.000562
-0.000538
-0.000546
-0.000585
-0.000588
-0.000483
-0.000462
-0.000548
-0.000567
-0.000472
-0.000436
-0.000501
-0.000604
-0.000569
-0.000556
-0.000674
-0.000748
-0.000682
-0.000698
-0.000803
-0.000803
-0.000682
-0.000601
-0.000577
-0.000543
-0.000501
-0.000569
-0.000630
-0.000530
-0.000404
-0.000451
-0.000362
-0.000297
-0.000365
-0.000454
-0.000457
-0.000381
-0.000394
-0.000459
-0.000480
-0.000483
-0.000454
-0.000425
-0.000362
-0.000325
-0.000444
-0.000475
-0.000391
-0.000407
-0.000512
-0.000590
-0.000506
-0.000412
-0.000360
-0.000349
-0.000373
-0.000449
-0.000454
-0.000346
-0.000286
-0.000320
-0.000333
-0.000315
-0.000273
-0.000270
-0.000294
-0.000325
-0.000318
-0.000307
-0.000278
-0.000304
-0.000409
-0.000336
-0.000307
-0.000428
-0.000567
-0.000541
-0.000575
-0.000556
-0.000349
-0.000268
-0.000349
-0.000514
-0.000459
-0.000373
-0.000331
-0.000320
-0.000289
-0.000257
-0.000189
-0.000105
-0.000087
-0.000218
-0.000399
-0.000483
-0.000483
-0.000485
-0.000506
-0.000459
-0.000417
-0.000297
-0.000205
-0.000289
-0.000315
-0.000281
-0.000155
-0.000079
-0.000016
0.000029
0.000005
-0.000079
-0.000029
-0.000047
-0.000210
-0.000409
-0.000412
-0.000349
-0.000383
-0.000493
-0.000525
-0.000517
-0.000349
-0.000189
-0.000179
-0.000270
-0.000339
-0.000423
-0.000441
-0.000302
-0.000150
-0.000210
-0.000226
-0.000147
-0.000097
-0.000095
-0.000050
-0.000060
-0.000081
-0.000197
-0.000252
-0.000320
-0.000325
-0.000291
-0.000278
-0.000304
-0.000252
-0.000220
-0.000236
-0.000247
-0.000168
-0.000118
-0.000071
-0.000100
-0.000179
-0.000289
-0.000367
-0.000407
-0.000278
-0.000142
-0.000113
-0.000197
-0.000213
-0.000213
-0.000252
-0.000344
-0.000234
-0.000095
-0.000102
-0.000158
-0.000108
-0.000089
-0.000257
-0.000430
-0.000357
-0.000163
-0.000074
-0.000150
-0.000241
-0.000163
-0.000116
-0.000147
-0.000163
-0.000126
-0.000113
-0.000194
-0.000339
-0.000339
-0.000318
-0.000273
-0.000152
-0.000097
-0.000087
-0.000131
-0.000123
-0.000058
-0.000063
-0.000110
0.000016
0.000142
0.000189
0.000205
0.000144
0.000079
0.000013
0.000008
-0.000003
-0.000097
-0.000137
-0.000137
-0.000123
-0.000134
-0.000084
-0.000003
0.000008
-0.000045
0.000013
0.000066
-0.000016
-0.000037
-0.000026
-0.000144
-0.000223
-0.000173
-0.000118
-0.000163
-0.000150
-0.000163
-0.000158
-0.000123
-0.000024
-0.000016
-0.000066
-0.000060
-0.000008
0.000086
0.000144
0.000152
0.000126
0.000063
-0.000047
-0.000197
-0.000234
-0.000228
-0.000318
-0.000407
-0.000307
-0.000168
-0.000168
-0.000186
-0.000131
-0.000016
0.000013
-0.000000
-0.000013
0.000094
0.000210
0.000220
0.000181
0.000110
-0.000021
-0.000081
-0.000045
-0.000013
-0.000018
0.000031
0.000089
0.000052
0.000102
0.000113
0.000031
-0.000152
-0.000357
-0.000402
-0.000465
-0.000478
-0.000357
-0.000297
-0.000378
-0.000328
-0.000215
-0.000155
-0.000102
-0.000060
0.000039
0.000084
0.000113
0.000142
0.000220
0.000191
0.000144
-0.000018
-0.000092
-0.000079
-0.000116
-0.000171
-0.000150
-0.000163
-0.000116
-0.000047
0.000037
-0.000055
-0.000126
-0.000034
0.000134
0.000165
0.000126
0.000018
-0.000121
-0.000147
-0.000108
-0.000126
-0.000144
-0.000192
-0.000239
-0.000144
0.000018
0.000031
-0.000084
-0.000144
-0.000147
-0.000147
-0.000184
-0.000110
0.000045
0.000018
0.000016
0.000118
0.000173
0.000170
0.000189
0.000273
0.000307
0.000189
0.000136
0.000144
0.000097
-0.000055
-0.000108
-0.000000
0.000055
0.000157
0.000228
0.000212
0.000081
0.000016
-0.000003
0.000055
0.000178
0.000181
0.000121
0.000047
-0.000000
-0.000063
-0.000039
0.000100
0.000139
0.000094
0.000184
0.000270
0.000241
0.000147
0.000128
0.000134
-0.000013
-0.000050
0.000005
-0.000016
-0.000113
-0.000071
0.000055
0.000063
0.000010
-0.000050
-0.000134
-0.000095
0.000029
-0.000016
-0.000100
-0.000126
-0.000047
-0.000011
-0.000000
-0.000037
-0.000053
-0.000076
-0.000060
0.000084
0.000260
0.000236
0.000157
0.000155
0.000142
0.000107
0.000055
0.000107
0.000239
0.000189
0.000105
0.000100
0.000060
-0.000058
-0.000039
0.000055
0.000060
0.000063
0.000218
0.000331
0.000249
0.000100
0.000016
-0.000029
-0.000029
0.000031
0.000076
-0.000008
0.000005
0.000128
0.000260
0.000262
0.000294
0.000226
0.000202
0.000155
0.000189
0.000254
0.000173
0.000058
0.000128
0.000273
0.000239
0.000037
0.000021
0.000039
-0.000013
-0.000100
-0.000034
0.000029
0.000029
0.000157
0.000291
0.000231
0.000149
0.000194
0.000302
0.000307
0.000233
0.000260
0.000239
0.000215
0.000186
0.000157
0.000181
0.000149
0.000136
0.000157
0.000134
-0.000013
0.000042
0.000252
0.000299
0.000218
0.000197
0.000291
0.000320
0.000260
0.000289
0.000315
0.000252
0.000160
0.000189
0.000270
0.000268
0.000325
0.000407
0.000438
0.000430
0.000352
0.000212
0.000066
0.000013
-0.000008
0.000039
0.000184
0.000247
0.000233
0.000344
0.000362
0.000336
0.000294
0.000375
0.000449
0.000501
0.000454
0.000283
0.000107
0.000079
0.000131
0.000155
0.000218
0.000341
0.000307
0.000215
0.000231
0.000257
0.000233
0.000244
0.000283
0.000275
0.000281
0.000352
0.000388
0.000362
0.000320
0.000344
0.000223
0.000018
-0.000079
-0.000026
0.000008
0.000034
0.000121
0.000283
0.000428
0.000501
0.000472
0.000396
0.000270
0.000160
0.000184
0.000244
0.000325
0.000320
0.000401
0.000459
0.000459
0.000470
0.000454
0.000310
0.000233
0.000233
0.000239
0.000107
-0.000021
-0.000055
-0.000063
0.000047
0.000244
0.000425
0.000414
0.000409
0.000451
0.000472
0.000388
0.000286
0.000149
0.000079
0.000118
0.000268
0.000422
0.000491
0.000422
0.000454
0.000519
0.000559
0.000514
0.000438
0.000328
0.000310
0.000404
0.000512
0.000467
0.000404
0.000320
0.000207
0.000092
0.000296
0.000485
0.000449
0.000391
0.000438
0.000430
0.000349
0.000218
0.000097
0.000060
0.000073
0.000207
0.000310
0.000341
0.000354
0.000375
0.000383
0.000393
0.000307
0.000260
0.000296
0.000375
0.000449
0.000454
0.000417
0.000323
0.000320
0.000328
0.000315
0.000236
0.000226
0.000254
0.000212
0.000176
0.000239
0.000341
0.000268
0.000186
0.000233
0.000275
0.000268
0.000215
0.000228
0.000304
0.000349
0.000370
0.000383
0.000491
0.000517
0.000367
0.000299
0.000331
0.000362
0.000367
0.000372
0.000331
0.000254
0.000173
0.000241
0.000296
0.000244
0.000118
0.000128
0.000212
0.000336
0.000449
0.000483
0.000554
0.000611
0.000548
0.000417
0.000449
0.000475
0.000438
0.000399
0.000409
0.000365
0.000273
0.000286
0.000315
0.000333
0.000304
0.000315
0.000323
0.000380
0.000449
0.000467
0.000491
0.000498
0.000425
0.000344
0.000386
0.000412
0.000428
0.000399
0.000399
0.000399
0.000378
0.000281
0.000307
0.000475
0.000554
0.000525
0.000522
0.000467
0.000333
0.000262
0.000388
0.000435
0.000302
0.000338
0.000414
0.000485
0.000464
0.000454
0.000399
0.000320
0.000247
0.000241
0.000176
0.000176
0.000107
0.000089
0.000247
0.000352
0.000249
0.000170
0.000294
0.000399
0.000344
0.000323
0.000428
0.000525
0.000559
0.000630
0.000622
0.000498
0.000302
0.000315
0.000404
0.000435
0.000412
0.000438
0.000446
0.000467
0.000380
0.000325
0.000404
0.000493
0.000383
0.000275
0.000378
0.000396
0.000328
0.000349
0.000527
0.000661
0.000582
0.000467
0.000428
0.000372
0.000325
0.000336
0.000430
0.000567
0.000596
0.000567
0.000577
0.000567
0.000491
0.000409
0.000399
0.000464
0.000370
0.000286
0.000275
0.000275
0.000296
0.000346
0.000359
0.000341
0.000359
0.000422
0.000472
0.000451
0.000456
0.000548
0.000651
0.000679
0.000624
0.000514
0.000375
0.000252
0.000191
0.000254
0.000344
0.000504
0.000543
0.000519
0.000425
0.000383
0.000354
0.000352
0.000462
0.000514
0.000493
0.000467
0.000420
0.000467
0.000446
0.000459
0.000449
0.000480
0.000485
0.000498
0.000519
0.000441
0.000372
0.000404
0.000525
0.000585
0.000514
0.000470
0.000454
0.000493
0.000496
0.000519
0.000611
0.000682
0.000601
0.000546
0.000559
0.000567
0.000449
0.000365
0.000354
0.000341
0.000372
0.000370
0.000383
0.000412
0.000380
0.000365
0.000475
0.000561
0.000546
0.000522
0.000548
0.000391
0.000212
0.000134
0.000202
0.000291
0.000199
0.000144
0.000262
0.000428
0.000530
0.000637
0.000661
0.000714
0.000735
0.000792
0.000829
0.000766
0.000596
0.000504
0.000504
0.000512
0.000399
0.000302
0.000370
0.000485
0.000525
0.000543
0.000433
0.000341
0.000404
0.000564
0.000632
0.000658
0.000590
0.000477
0.000467
0.000551
0.000551
0.000493
0.000388
0.000336
0.000349
0.000412
0.000449
0.000451
0.000441
0.000462
0.000554
0.000664
0.000708
0.000603
0.000561
0.000624
0.000703
0.000661
0.000596
0.000538
0.000491
0.000488
0.000517
0.000567
0.000535
0.000433
0.000441
0.000535
0.000567
0.000572
0.000593
0.000624
0.000598
0.000551
0.000462
0.000435
0.000462
0.000425
0.000430
0.000564
0.000611
0.000519
0.000396
0.000435
0.000446
0.000412
0.000430
0.000462
0.000435
0.000454
0.000585
0.000645
0.000590
0.000480
0.000409
0.000438
0.000433
0.000446
0.000530
0.000632
0.000677
0.000614
0.000522
0.000470
0.000443
0.000349
0.000425
0.000527
0.000509
0.000480
0.000527
0.000577
0.000477
0.000425
0.000414
0.000391
0.000407
0.000491
0.000572
0.000514
0.000414
0.000428
0.000496
0.000522
0.000451
0.000451
0.000483
0.000533
0.000554
0.000527
0.000420
0.000344
0.000365
0.000451
0.000556
0.000561
0.000498
0.000522
0.000622
0.000679
0.000585
0.000467
0.000475
0.000527
0.000438
0.000462
0.000640
0.000614
0.000467
0.000420
0.000480
0.000435
0.000354
0.000307
0.000291
0.000317
0.000404
0.000501
0.000569
0.000627
0.000596
0.000577
0.000585
0.000561
0.000525
0.000540
0.000643
0.000698
0.000656
0.000685
0.000787
0.000748
0.000664
0.000609
0.000637
0.000682
0.000748
0.000819
0.000750
0.000658
0.000554
0.000535
0.000564
0.000577
0.000506
0.000498
0.000548
0.000648
0.000596
0.000488
0.000475
0.000498
0.000438
0.000391
0.000386
0.000480
0.000472
0.000477
0.000522
0.000567
0.000617
0.000624
0.000619
0.000677
0.000698
0.000693
0.000750
0.000774
0.000737
0.000661
0.000640
0.000695
0.000714
0.000669
0.000585
0.000501
0.000501
0.000596
0.000603
0.000603
0.000556
0.000509
0.000501
0.000617
0.000690
0.000771
0.000784
0.000803
0.000826
0.000779
0.000735
0.000724
0.000690
0.000703
0.000724
0.000742
0.000682
0.000611
0.000551
0.000530
0.000535
0.000525
0.000519
0.000438
0.000352
0.000386
0.000451
0.000548
0.000538
0.000622
0.000651
0.000590
0.000543
0.000498
0.000517
0.000538
0.000561
0.000556
0.000564
0.000656
0.000769
0.000850
0.000777
0.000679
0.000590
0.000617
0.000651
0.000635
0.000493
0.000414
0.000451
0.000512
0.000575
0.000575
0.000543
0.000428
0.000454
0.000598
0.000614
0.000577
0.000525
0.000585
0.000706
0.000674
0.000598
0.000580
0.000622
0.000635
0.000622
0.000617
0.000554
0.000485
0.000449
0.000477
0.000506
0.000533
0.000569
0.000619
0.000719
0.000737
0.000622
0.000493
0.000462
0.000498
0.000525
0.000546
0.000551
0.000540
0.000569
0.000609
0.000640
0.000648
0.000609
0.000674
0.000682
0.000693
0.000758
0.000711
0.000672
0.000661
0.000669
0.000700
0.000727
0.000716
0.000664
0.000648
0.000559
0.000540
0.000611
0.000674
0.000690
0.000682
0.000619
0.000533
0.000540
0.000630
0.000724
0.000766
0.000782
0.000766
0.000695
0.000635
0.000666
0.000740
0.000721
0.000711
0.000695
0.000653
0.000637
0.000687
0.000698
0.000590
0.000488
0.000543
0.000590
0.000564
0.000527
0.000564
0.000679
0.000645
0.000569
0.000637
0.000753
0.000737
0.000685
0.000648
0.000624
0.000617
0.000666
0.000784
0.000866
0.000916
0.000913
0.000916
0.000884
0.000837
0.000787
0.000756
0.000779
0.000829
0.000792
0.000711
0.000658
0.000637
0.000614
0.000640
0.000708
0.000714
0.000609
0.000551
0.000522
0.000472
0.000438
0.000538
0.000714
0.000771
0.000703
0.000669
0.000742
0.000808
0.000779
0.000679
0.000727
0.000740
0.000724
0.000735
0.000777
0.000753
0.000761
0.000766
0.000782
0.000782
0.000766
0.000774
0.000756
0.000729
0.000551
0.000546
0.000656
0.000687
0.000632
0.000588
0.000575
0.000677
0.000745
0.000866
0.000871
0.000819
0.000695
0.000627
0.000617
0.000619
0.000601
0.000632
0.000685
0.000703
0.000771
0.000769
0.000748
0.000666
0.000546
0.000519
0.000598
0.000769
0.000850
0.000855
0.000837
0.000787
0.000700
0.000648
0.000703
0.000737
0.000687
0.000677
0.000795
0.000882
0.000879
0.000939
0.000929
0.000842
0.000779
0.000792
0.000792
0.000737
0.000630
0.000669
0.000753
0.000753
0.000779
0.000805
0.000703
0.000672
0.000727
0.000753
0.000745
0.000700
0.000719
0.000821
0.000853
0.000879
0.000863
0.000834
0.000868
0.000908
0.000908
0.000792
0.000727
0.000661
0.000658
0.000766
0.000829
0.000792
0.000727
0.000674
0.000658
0.000656
0.000640
0.000658
0.000674
0.000685
0.000645
0.000664
0.000740
0.000708
0.000653
0.000622
0.000682
0.000658
0.000624
0.000658
0.000766
0.000711
0.000588
0.000582
0.000672
0.000693
0.000669
0.000721
0.000658
0.000551
0.000354
0.000312
0.000414
0.000407
0.000401
0.000527
0.000614
0.000685
0.000748
0.000774
0.000732
0.000700
0.000732
0.000829
0.000850
0.000808
0.000853
0.000847
0.000863
0.000829
0.000756
0.000653
0.000585
0.000580
0.000606
0.000624
0.000679
0.000672
0.000716
0.000714
0.000661
0.000674
0.000719
0.000732
0.000745
0.000711
0.000698
0.000679
0.000653
0.000575
0.000637
0.000698
0.000727
0.000756
0.000700
0.000687
0.000716
0.000687
0.000727
0.000834
0.000777
0.000761
0.000816
0.000863
0.000782
0.000748
0.000742
0.000737
0.000703
0.000698
0.000695
0.000645
0.000653
0.000729
0.000740
0.000640
0.000619
0.000695
0.000742
0.000753
0.000834
0.000929
0.000868
0.000829
0.000842
0.000816
0.000787
0.000777
0.000829
0.000853
0.000884
0.000858
0.000855
0.000908
0.000829
0.000724
0.000666
0.000661
0.000669
0.000761
0.000842
0.000845
0.000784
0.000774
0.000763
0.000737
0.000679
0.000685
0.000614
0.000651
0.000766
0.000777
0.000708
0.000658
0.000669
0.000732
0.000698
0.000609
0.000582
0.000658
0.000727
0.000782
0.000784
0.000672
0.000577
0.000598
0.000651
0.000703
0.000737
0.000787
0.000819
0.000779
0.000698
0.000719
0.000674
0.000666
0.000748
0.000819
0.000771
0.000716
0.000719
0.000714
0.000706
0.000753
0.000837
0.000834
0.000740
0.000758
0.000819
0.000795
0.000745
0.000758
0.000816
0.000808
0.000824
0.000803
0.000750
0.000721
0.000714
0.000735
0.000693
0.000617
0.000622
0.000771
0.000905
0.000960
0.000965
0.000908
0.000787
0.000706
0.000687
0.000669
0.000624
0.000658
0.000685
0.000666
0.000687
0.000687
0.000632
0.000606
0.000624
0.000735
0.000816
0.000853
0.000874
0.000887
0.000884
0.000795
0.000719
0.000690
0.000669
0.000640
0.000729
0.000837
0.000803
0.000842
0.000868
0.000871
0.000763
0.000687
0.000711
0.000706
0.000737
0.000745
0.000824
0.000842
0.000853
0.000837
0.000939
0.000997
0.000950
0.000900
0.000871
0.000858
0.000842
0.000882
0.000879
0.000766
0.000690
0.000706
0.000737
0.000784
0.000782
0.000748
0.000761
0.000834
0.000826
0.000777
0.000766
0.000813
0.000826
0.000824
0.000905
0.001005
0.000952
0.000855
0.000845
0.000840
0.000834
0.000826
0.000782
0.000648
0.000548
0.000601
0.000611
0.000640
0.000637
0.000666
0.000690
0.000777
0.000842
0.000879
0.000855
0.000832
0.000840
0.000826
0.000834
0.000858
0.000871
0.000884
0.000876
0.000861
0.000850
0.000840
0.000716
0.000580
0.000554
0.000632
0.000695
0.000719
0.000826
0.000853
0.000882
0.000934
0.000905
0.000842
0.000756
0.000716
0.000771
0.000808
0.000871
0.000923
0.000916
0.000916
0.000902
0.000876
0.000798
0.000771
0.000792
0.000779
0.000695
0.000672
0.000732
0.000771
0.000700
0.000614
0.000643
0.000698
0.000682
0.000706
0.000763
0.000792
0.000758
0.000784
0.000800
0.000774
0.000792
0.000816
0.000805
0.000774
0.000821
0.000829
0.000824
0.000792
0.000771
0.000740
0.000758
0.000816
0.000798
0.000769
0.000792
0.000832
0.000858
0.000842
0.000824
0.000850
0.000832
0.000829
0.000832
0.000853
0.000826
0.000892
0.000950
0.000887
0.000845
0.000805
0.000787
0.000779
0.000808
0.000921
0.000955
0.000944
0.000923
0.000926
0.000934
0.000929
0.001031
0.001021
0.000992
0.000916
0.000798
0.000805
0.000871
0.000918
0.000918
0.000937
0.000979
0.000908
0.000777
0.000674
0.000721
0.000819
0.000816
0.000847
0.000923
0.000952
0.000937
0.000923
0.000882
0.000766
0.000653
0.000672
0.000724
0.000769
0.000790
0.000868
0.000950
0.000910
0.000847
0.000866
0.000934
0.000902
0.000892
0.000897
0.000868
0.000847
0.000868
0.000926
0.000968
0.000918
0.000868
0.000866
0.000769
0.000727
0.000721
0.000666
0.000656
0.000719
0.000779
0.000813
0.000853
0.000916
0.000861
0.000910
0.000902
0.000913
0.000902
0.000871
0.000805
0.000845
0.000874
0.000861
0.000918
0.000973
0.000986
0.000965
0.000989
0.001002
0.000986
0.000947
0.000850
0.000824
0.000735
0.000740
0.000837
0.000861
0.000855
0.000850
0.000842
0.000792
0.000758
0.000761
0.000850
0.000832
0.000690
0.000661
0.000687
0.000706
0.000732
0.000800
0.000829
0.000800
0.000853
0.000939
0.000913
0.000879
0.000840
0.000811
0.000824
0.000871
0.000937
0.001065
0.001065
0.001015
0.000937
0.000871
0.000902
0.000913
0.000868
0.000821
0.000774
0.000771
0.000766
0.000790
0.000876
0.000968
0.000981
0.000952
0.000868
0.000861
0.000937
0.001028
0.001015
0.000989
0.001010
0.001049
0.001094
0.001023
0.000939
0.000874
0.000840
0.000811
0.000798
0.000766
0.000735
0.000737
0.000737
0.000742
0.000740
0.000787
0.000816
0.000858
0.000986
0.000923
0.000819
0.000824
0.000876
0.000861
0.000800
0.000837
0.000829
0.000837
0.000819
0.000821
0.000882
0.000902
0.000923
0.000942
0.000952
0.000897
0.000861
0.000855
0.000926
0.000979
0.000955
0.000942
0.000950
0.000971
0.000984
0.000944
0.000931
0.000884
0.000816
0.000821
0.000942
0.000997
0.000950
0.000939
0.000965
0.000934
0.001000
0.001000
0.000979
0.000937
0.000926
0.000939
0.000942
0.000929
0.000892
0.000892
0.000811
0.000790
0.000816
0.000842
0.000826
0.000821
0.000866
0.000926
0.000971
0.000992
0.001044
0.001034
0.001034
0.001013
0.000963
0.000934
0.000921
0.000929
0.000947
0.000931
0.000937
0.000997
0.001021
0.000994
0.000958
0.000947
0.000908
0.000868
0.000847
0.000853
0.000813
0.000871
0.000944
0.000921
0.000871
0.000840
0.000845
0.000777
0.000695
0.000742
0.000816
0.000842
0.000884
0.000942
0.000939
0.000913
0.000937
0.000913
0.000976
0.001021
0.001044
0.001005
0.000965
0.000942
0.000882
0.000832
0.000790
0.000800
0.000850
0.000897
0.000902
0.000837
0.000782
0.000821
0.000866
0.000840
0.000921
0.000929
0.000939
0.001005
0.001055
0.001015
0.000973
0.000923
0.000931
0.000871
0.000863
0.000905
0.000908
0.000926
0.000979
0.001007
0.001034
0.001047
0.000994
0.000923
0.000902
0.000929
0.000879
0.000805
0.000742
0.000763
0.000766
0.000779
0.000832
0.000847
0.000837
0.000892
0.000952
0.000937
0.000944
0.000929
0.000952
0.000908
0.000895
0.000871
0.000900
0.000921
0.000955
0.000984
0.001000
0.000989
0.000955
0.000947
0.000908
0.000929
0.000973
0.000984
0.000984
0.000994
0.001034
0.001028
0.000971
0.000879
0.000889
0.000955
0.001007
0.000955
0.000879
0.000811
0.000829
0.000753
0.000719
0.000737
0.000740
0.000798
0.000821
0.000876
0.000866
0.000882
0.000952
0.000976
0.000937
0.000942
0.000986
0.000986
0.000934
0.000876
0.000905
0.000910
0.000834
0.000850
0.000879
0.000863
0.000824
0.000803
0.000847
0.000876
0.000897
0.000879
0.000876
0.000887
0.000876
0.000850
0.000884
0.000874
0.000882
0.000887
0.000931
0.001026
0.001010
0.000931
0.000913
0.000900
0.000837
0.000763
0.000832
0.000871
0.000732
0.000727
0.000868
0.000986
0.000939
0.000934
0.000981
0.000994
0.000921
0.000937
0.000950
0.000950
0.000942
0.000973
0.000960
0.000887
0.000887
0.000934
0.000944
0.000958
0.000947
0.000981
0.001010
0.001018
0.001002
0.000908
0.000858
0.000858
0.000855
0.000918
0.000997
0.001002
0.000955
0.000950
0.000989
0.001044
0.001000
0.000958
0.000939
0.000908
0.000874
0.000874
0.000913
0.000861
0.000826
0.000858
0.000882
0.000902
0.000910
0.000989
0.001013
0.000979
0.000931
0.000989
0.000963
0.000923
0.000960
0.001002
0.001007
0.000926
0.000879
0.000819
0.000834
0.000847
0.000832
0.000845
0.000853
0.000779
0.000737
0.000840
0.000950
0.000997
0.001007
0.001031
0.001073
0.001078
0.001049
0.001023
0.001018
0.001000
0.000973
0.001013
0.001007
0.000979
0.000918
0.000900
0.000882
0.000868
0.000871
0.000905
0.000973
0.001023
0.001013
0.001007
0.000947
0.000916
0.000887
0.000882
0.000876
0.000887
0.000902
0.000905
0.000960
0.001057
0.001112
0.001086
0.001081
0.001057
0.001000
0.000981
0.000968
0.001000
0.001021
0.001002
0.000958
0.000947
0.000905
0.000863
0.000879
0.000947
0.000971
0.001013
0.001036
0.001000
0.000879
0.000805
0.000845
0.000850
0.000808
0.000871
0.000887
0.000895
0.000944
0.000937
0.000934
0.000952
0.000929
0.000900
0.000923
0.000968
0.001000
0.001028
0.001021
0.001036
0.001005
0.000931
0.000979
0.000994
0.000971
0.000981
0.001015
0.001073
0.000986
0.000947
0.000934
0.000944
0.000950
0.001005
0.001039
0.001055
0.001057
0.001039
0.001021
0.001039
0.001010
0.001010
0.001052
0.001021
0.001000
0.000973
0.001015
0.001013
0.000942
0.000842
0.000866
0.000992
0.001047
0.000981
0.000939
0.000986
0.001018
0.000989
0.001013
0.000986
0.000897
0.000887
0.000937
0.000960
0.000929
0.000942
0.000992
0.001021
0.000981
0.000968
0.000910
0.000879
0.000845
0.000895
0.000994
0.001078
0.001086
0.001036
0.001021
0.001057
0.001081
0.001081
0.001028
0.000989
0.000952
0.000887
0.000861
0.000871
0.000902
0.000929
0.000979
0.001036
0.001073
0.001081
0.001105
0.001065
0.001047
0.001057
0.001118
0.001086
0.000997
0.000986
0.000992
0.000986
0.000968
0.000960
0.001002
0.001060
0.001068
0.001007
0.001023
0.001005
0.000947
0.000965
0.001000
0.000934
0.000858
0.000889
0.000973
0.000997
0.000986
0.001034
0.001057
0.001018
0.001036
0.001089
0.001091
0.001055
0.001002
0.000989
0.001000
0.000986
0.000944
0.000942
0.000984
0.000997
0.001002
0.001034
0.001036
0.001068
0.001078
0.001057
0.001015
0.000994
0.000939
0.000905
0.000861
0.000866
0.000910
0.000981
0.001018
0.001068
0.001070
0.001055
0.001028
0.001007
0.000971
0.000952
0.000926
0.000902
0.000855
0.000861
0.000876
0.000921
0.000955
0.001007
0.000968
0.001028
0.001002
0.001018
0.001036
0.001049
0.001015
0.001010
0.001076
0.000984
0.000950
0.000950
0.000976
0.000971
0.000889
0.000850
0.000884
0.000850
0.000902
0.000923
0.000986
0.001005
0.000973
0.000984
0.000963
0.000895
0.000887
0.000910
0.000979
0.001052
0.001042
0.001018
0.001044
0.001068
0.001023
0.001023
0.001036
0.001068
0.001015
0.001002
0.001000
0.000973
0.000981
0.001002
0.001018
0.000981
0.000942
0.000992
0.001055
0.001084
0.001042
0.001068
0.001128
0.001107
0.001039
0.001026
0.001028
0.000997
0.001005
0.001049
0.001097
0.001070
0.001089
0.001139
0.001089
0.001086
0.001105
0.001094
0.001023
0.001013
0.001036
0.001049
0.000986
0.000923
0.000910
0.000929
0.000979
0.001021
0.001000
0.000984
0.001023
0.001052
0.001049
0.001031
0.000979
0.000926
0.000918
0.000947
0.000942
0.000968
0.000997
0.000986
0.001018
0.001034
0.001049
0.001036
0.001039
0.001063
0.001136
0.001081
0.001081
0.001063
0.001005
0.001015
0.001031
0.001047
0.001013
0.000973
0.001047
0.001065
0.001042
0.001034
0.000992
0.000994
0.000994
0.000910
0.000900
0.000913
0.000965
0.000989
0.000950
0.000960
0.001018
0.001010
0.001042
0.001055
0.000994
0.000926
0.000929
0.000981
0.001039
0.000986
0.000958
0.000942
0.000965
0.000971
0.000968
0.001034
0.001047
0.001013
0.001063
0.001068
0.001034
0.001039
0.001078
0.001118
0.001110
0.001118
0.001097
0.001091
0.001089
0.001013
0.000950
0.000931
0.000931
0.000931
0.000947
0.000876
0.000790
0.000834
0.000986
0.001039
0.001063
0.001099
0.001063
0.001049
0.001000
0.001028
0.001005
0.000913
0.000902
0.000955
0.000984
0.001002
0.001010
0.001031
0.001036
0.001015
0.001000
0.000960
0.000910
0.000955
0.000994
0.001034
0.001031
0.000984
0.000997
0.001007
0.000989
0.001007
0.000963
0.000884
0.000853
0.000887
0.000929
0.000955
0.001031
0.001049
0.001042
0.000960
0.000923
0.000897
0.000965
0.001073
0.001068
0.001047
0.001026
0.001081
0.001141
0.001154
0.001070
0.000986
0.000981
0.000947
0.000908
0.000897
0.000868
0.000884
0.000871
0.000976
0.001118
0.001144
0.001052
0.001028
0.001007
0.001018
0.000997
0.001000
0.000955
0.000963
0.001036
0.001133
0.001160
0.001112
0.001141
0.001212
0.001230
0.001244
0.001178
0.001128
0.001097
0.001081
0.001147
0.001149
0.001131
0.001105
0.001076
0.001042
0.001023
0.001060
0.001078
0.001115
0.001157
0.001215
0.001162
0.001089
0.001044
0.001047
0.001026
0.001042
0.001076
0.001063
0.001026
0.001042
0.001023
0.001052
0.001073
0.001123
0.001110
0.001131
0.001115
0.001084
0.001060
0.001070
0.001060
0.000981
0.001021
0.001057
0.001055
0.001073
0.001089
0.001078
0.001065
0.001078
0.001084
0.001107
0.001044
0.001002
0.001018
0.001065
0.001049
0.001073
0.001128
0.001170
0.001136
0.001168
0.001139
0.001086
0.001028
0.001015
0.001031
0.001036
0.001026
0.001023
0.001070
0.001136
0.001152
0.001149
0.001165
0.001154
0.001173
0.001147
0.001118
0.001147
0.001115
0.001131
0.001128
0.001089
0.000997
0.000926
0.000968
0.001005
0.001007
0.001007
0.001002
0.001026
0.000986
0.000984
0.001057
0.001118
0.001123
0.001154
0.001160
0.001021
0.000895
0.000884
0.000979
0.000984
0.000979
0.000989
0.000986
0.001013
0.000963
0.000842
0.000714
0.000679
0.000866
0.001042
0.001118
0.001152
0.001055
0.000981
0.001026
0.001052
0.001044
0.001044
0.001063
0.001078
0.001086
0.001070
0.001028
0.000900
0.000816
0.000850
0.000944
0.001039
0.001047
0.001070
0.001123
0.001131
0.001120
0.001126
0.001123
0.001102
0.001042
0.001010
0.001052
0.001023
0.000992
0.001068
0.001123
0.001099
0.001055
0.001097
0.001115
0.001102
0.001099
0.001094
0.001086
0.001107
0.001165
0.001191
0.001128
0.001049
0.001049
0.001028
0.001057
0.001086
0.001000
0.000965
0.001023
0.001105
0.001089
0.001052
0.001044
0.001007
0.001021
0.001065
0.001162
0.001102
0.001021
0.001047
0.001063
0.001026
0.000942
0.000918
0.000989
0.001002
0.000968
0.000984
0.001021
0.000981
0.000981
0.001002
0.001023
0.001039
0.001063
0.001063
0.001013
0.000984
0.000923
0.000931
0.001013
0.001042
0.001047
0.001031
0.001018
0.000955
0.000910
0.001028
0.001049
0.001034
0.000971
0.001023
0.001055
0.001115
0.001044
0.000968
0.001000
0.001039
0.001015
0.001034
0.001042
0.001002
0.001010
0.001002
0.001057
0.001078
0.001021
0.001034
0.001060
0.001063
0.001049
0.001107
0.001089
0.000997
0.000965
0.001023
0.001073
0.001013
0.001042
0.001089
0.001141
0.001144
0.001128
0.001118
0.001091
0.001102
0.001086
0.001084
0.001060
0.001089
0.001115
0.001128
0.001047
0.000926
0.000889
0.000931
0.000968
0.001005
0.001039
0.001065
0.001110
0.001086
0.001044
0.000992
0.001007
0.001068
0.001110
0.001207
0.001220
0.001202
0.001102
0.001039
0.001013
0.001018
0.001013
0.000929
0.000955
0.000984
0.000986
0.001065
0.001102
0.001078
0.001028
0.001068
0.001055
0.001070
0.000992
0.001039
0.001078
0.001102
0.001126
0.001144
0.001115
0.001070
0.001002
0.001023
0.001063
0.001055
0.001026
0.001007
0.001057
0.001042
0.001057
0.001086
0.001094
0.001128
0.001120
0.001147
0.001131
0.001128
0.001160
0.001128
0.001078
0.001073
0.001055
0.001063
0.001073
0.001076
0.001034
0.001073
0.001084
0.001076
0.001031
0.001034
0.001086
0.001091
0.001162
0.001212
0.001199
0.001168
0.001086
0.001068
0.001036
0.001005
0.001010
0.001010
0.001055
0.001115
0.001107
0.001105
0.001128
0.001141
0.001141
0.001186
0.001183
0.001175
0.001147
0.001194
0.001162
0.001078
0.001076
0.001076
0.001063
0.001026
0.001060
0.001073
0.001070
0.001102
0.001128
0.001133
0.001112
0.001110
0.001089
0.001099
0.001081
0.001031
0.000997
0.001063
0.001073
0.001091
0.001157
0.001194
0.001162
0.001089
0.001036
0.000958
0.000989
0.001070
0.001099
0.001139
0.001141
0.001123
0.001086
0.001110
0.001089
0.001060
0.001026
0.001060
0.001055
0.001081
0.001078
0.001052
0.001057
0.001107
0.001147
0.001175
0.001173
0.001120
0.001078
0.001057
0.001055
0.001063
0.001021
0.001091
0.001149
0.001118
0.001060
0.001063
0.001078
0.001110
0.001076
0.001065
0.001076
0.001026
0.001010
0.001073
0.001141
0.001152
0.001157
0.001139
0.001152
0.001147
0.001115
0.001091
0.001099
0.001160
0.001168
0.001165
0.001168
0.001157
0.001065
0.000994
0.000937
0.000939
0.000989
0.001018
0.001065
0.001115
0.001131
0.001131
0.001141
0.001112
0.001052
0.001049
0.001073
0.001112
0.001115
0.001094
0.001091
0.001065
0.001065
0.001086
0.001047
0.001063
0.001073
0.001139
0.001170
0.001168
0.001183
0.001126
0.001118
0.001170
0.001131
0.001123
0.001120
0.001102
0.001039
0.001078
0.001107
0.001107
0.001073
0.001120
0.001144
0.001154
0.001144
0.001141
0.001060
0.001052
0.001068
0.001168
0.001160
0.001099
0.001076
0.001060
0.001076
0.001065
0.001094
0.001094
0.001099
0.001126
0.001081
0.001023
0.001015
0.001099
0.001157
0.001202
0.001220
0.001191
0.001107
0.001063
0.001076
0.001070
0.001021
0.001089
0.001149
0.001175
0.001123
0.001149
0.001152
0.001091
0.001091
0.001081
0.001110
0.001149
0.001168
0.001089
0.000986
0.000952
0.000939
0.001026
0.001060
0.001081
0.001094
0.001102
0.001120
0.001170
0.001149
0.001118
0.001099
0.001055
0.001057
0.001094
0.001105
0.001157
0.001162
0.001152
0.001141
0.001110
0.001034
0.001047
0.001073
0.001120
0.001170
0.001215
0.001275
0.001228
0.001157
0.001168
0.001162
0.001160
0.001175
0.001220
0.001212
0.001175
0.001123
0.001123
0.001147
0.001168
0.001191
0.001209
0.001230
0.001220
0.001202
0.001168
0.001202
0.001186
0.001133
0.001118
0.001120
0.001133
0.001094
0.001141
0.001131
0.001139
0.001131
0.001105
0.001021
0.001042
0.001131
0.001136
0.001128
0.001136
0.001091
0.001055
0.001021
0.001073
0.001076
0.001042
0.001060
0.001110
0.001110
0.001042
0.001010
0.000992
0.000989
0.001023
0.001097
0.001128
0.001102
0.001078
0.001073
0.001065
0.001031
0.001052
0.001115
0.001115
0.001110
0.001202
0.001244
0.001220
0.001228
0.001183
0.001157
0.001044
0.001026
0.001049
0.001099
0.001144
0.001118
0.001118
0.001076
0.001039
0.001021
0.000942
0.000929
0.000986
0.001099
0.001183
0.001204
0.001191
0.001165
0.001084
0.001078
0.001073
0.001110
0.001131
0.001162
0.001139
0.001136
0.001183
0.001209
0.001212
0.001149
0.001110
0.001149
0.001178
0.001160
0.001170
0.001186
0.001157
0.001152
0.001154
0.001183
0.001147
0.001144
0.001139
0.001170
0.001183
0.001136
0.001091
0.001105
0.001112
0.001112
0.001120
0.001123
0.001157
0.001126
0.001115
0.001126
0.001081
0.000997
0.000971
0.001042
0.001118
0.001178
0.001191
0.001238
0.001249
0.001280
0.001288
0.001251
0.001225
0.001152
0.001131
0.001149
0.001144
0.001091
0.001055
0.001000
0.000968
0.001010
0.001110
0.001141
0.001149
0.001173
0.001207
0.001246
0.001220
0.001215
0.001196
0.001120
0.001133
0.001070
0.001013
0.001018
0.001105
0.001105
0.001084
0.001099
0.001144
0.001141
0.001089
0.001105
0.001107
0.001036
0.001068
0.001131
0.001154
0.001162
0.001147
0.001157
0.001162
0.001170
0.001139
0.001115
0.001141
0.001089
0.001110
0.001131
0.001136
0.001102
0.001094
0.001102
0.001112
0.001078
0.001086
0.001147
0.001154
0.001084
0.001065
0.001089
0.001112
0.001097
0.001147
0.001194
0.001204
0.001126
0.001133
0.001147
0.001144
0.001112
0.001144
0.001186
0.001196
0.001157
0.001168
0.001160
0.001160
0.001089
0.001154
0.001188
0.001147
0.001099
0.001073
0.001110
0.001070
0.001084
0.001165
0.001199
0.001220
0.001141
0.001107
0.001131
0.001157
0.001186
0.001209
0.001217
0.001246
0.001215
0.001244
0.001196
0.001175
0.001178
0.001165
0.001173
0.001173
0.001207
0.001191
0.001144
0.001141
0.001186
0.001175
0.001186
0.001175
0.001204
0.001175
0.001105
0.001126
0.001160
0.001139
0.001089
0.001110
0.001118
0.001157
0.001110
0.001091
0.001107
0.001094
0.001110
0.001168
0.001149
0.001047
0.000950
0.001023
0.001086
0.001123
0.001191
0.001238
0.001238
0.001217
0.001204
0.001233
0.001170
0.001165
0.001168
0.001175
0.001162
0.001131
0.001099
0.001073
0.001026
0.001049
0.001105
0.001131
0.001194
0.001238
0.001228
0.001202
0.001139
0.001149
0.001118
0.001073
0.001023
0.001021
0.001070
0.001097
0.001115
0.001178
0.001202
0.001186
0.001199
0.001186
0.001181
0.001181
0.001105
0.001099
0.001170
0.001238
0.001228
0.001215
0.001220
0.001202
0.001126
0.001097
0.001118
0.001131
0.001162
0.001204
0.001228
0.001223
0.001136
0.001042
0.001021
0.001070
0.001123
0.001147
0.001215
0.001236
0.001178
0.001147
0.001157
0.001183
0.001123
0.001107
0.001123
0.001154
0.001091
0.001112
0.001154
0.001144
0.001168
0.001202
0.001246
0.001301
0.001280
0.001296
0.001286
0.001225
0.001188
0.001199
0.001175
0.001126
0.001094
0.001110
0.001128
0.001136
0.001162
0.001217
0.001254
0.001249
0.001217
0.001173
0.001183
0.001168
0.001170
0.001149
0.001144
0.001115
0.001091
0.001120
0.001136
0.001152
0.001152
0.001128
0.001149
0.001173
0.001128
0.001204
0.001244
0.001249
0.001236
0.001228
0.001191
0.001173
0.001160
0.001162
0.001133
0.001110
0.001144
0.001144
0.001147
0.001136
0.001152
0.001073
0.001055
0.001078
0.001078
0.001044
0.001018
0.000989
0.001007
0.001057
0.001115
0.001191
0.001217
0.001207
0.001209
0.001178
0.001196
0.001194
0.001157
0.001141
0.001139
0.001181
0.001215
0.001202
0.001165
0.001162
0.001181
0.001225
0.001209
0.001230
0.001230
0.001275
0.001254
0.001244
0.001223
0.001196
0.001165
0.001181
0.001225
0.001162
0.001123
0.001099
0.001123
0.001091
0.001144
0.001212
0.001173
0.001165
0.001209
0.001207
0.001196
0.001215
0.001241
0.001215
0.001202
0.001173
0.001120
0.001070
0.001076
0.001065
0.001021
0.001097
0.001126
0.001115
0.001123
0.001141
0.001165
0.001183
0.001178
0.001178
0.001149
0.001194
0.001175
0.001160
0.001181
0.001207
0.001126
0.001094
0.001136
0.001120
0.001091
0.001068
0.001068
0.001068
0.001031
0.001081
0.001099
0.001168
0.001144
0.001215
0.001207
0.001160
0.001105
0.001160
0.001230
0.001207
0.001191
0.001152
0.001118
0.001154
0.001139
0.001136
0.001173
0.001209
0.001228
0.001272
0.001249
0.001175
0.001152
0.001102
0.001026
0.001026
0.001073
0.001131
0.001084
0.001034
0.001023
0.001078
0.001154
0.001186
0.001160
0.001141
0.001157
0.001199
0.001212
0.001223
0.001209
0.001183
0.001230
0.001230
0.001183
0.001149
0.001144
0.001168
0.001183
0.001228
0.001225
0.001249
0.001254
0.001238
0.001217
0.001202
0.001199
0.001257
0.001241
0.001236
0.001225
0.001223
0.001241
0.001212
0.001178
0.001186
0.001175
0.001162
0.001144
0.001168
0.001170
0.001204
0.001181
0.001154
0.001157
0.001188
0.001220
0.001220
0.001217
0.001257
0.001272
0.001267
0.001194
0.001136
0.001128
0.001128
0.001181
0.001154
0.001162
0.001110
0.001105
0.001173
0.001178
0.001136
0.001073
0.001147
0.001228
0.001194
0.001217
0.001241
0.001170
0.001068
0.001023
0.001091
0.001147
0.001162
0.001202
0.001223
0.001217
0.001241
0.001225
0.001230
0.001238
0.001225
0.001168
0.001162
0.001160
0.001202
0.001212
0.001183
0.001191
0.001199
0.001207
0.001181
0.001199
0.001199
0.001183
0.001241
0.001272
0.001301
0.001236
0.001212
0.001212
0.001215
0.001228
0.001215
0.001238
0.001238
0.001160
0.001141
0.001141
0.001183
0.001173
0.001204
0.001220
0.001199
0.001207
0.001254
0.001259
0.001233
0.001186
0.001094
0.001002
0.000986
0.001057
0.001105
0.001120
0.001131
0.001160
0.001212
0.001236
0.001241
0.001144
0.001160
0.001175
0.001228
0.001212
0.001152
0.001170
0.001186
0.001168
0.001154
0.001168
0.001168
0.001165
0.001168
0.001209
0.001215
0.001191
0.001215
0.001251
0.001168
0.001084
0.001091
0.001076
0.001049
0.001039
0.001105
0.001170
0.001183
0.001170
0.001183
0.001178
0.001191
0.001188
0.001194
0.001170
0.001160
0.001186
0.001246
0.001257
0.001173
0.001228
0.001291
0.001262
0.001241
0.001183
0.001144
0.001175
0.001215
0.001202
0.001154
0.001173
0.001194
0.001144
0.001123
0.001107
0.001039
0.001023
0.001102
0.001168
0.001212
0.001204
0.001196
0.001209
0.001209
0.001183
0.001191
0.001220
0.001228
0.001236
0.001188
0.001165
0.001136
0.001112
0.001133
0.001188
0.001188
0.001154
0.001194
0.001225
0.001209
0.001144
0.001162
0.001230
0.001278
0.001259
0.001223
0.001220
0.001199
0.001168
0.001220
0.001223
0.001204
0.001147
0.001204
0.001241
0.001272
0.001286
0.001317
0.001301
0.001257
0.001280
0.001278
0.001244
0.001144
0.001133
0.001173
0.001199
0.001265
0.001301
0.001275
0.001220
0.001223
0.001228
0.001212
0.001162
0.001086
0.001055
0.001120
0.001186
0.001220
0.001207
0.001220
0.001191
0.001225
0.001225
0.001196
0.001204
0.001186
0.001157
0.001194
0.001202
0.001204
0.001212
0.001233
0.001270
0.001254
0.001188
0.001181
0.001105
0.001042
0.001026
0.001107
0.001157
0.001230
0.001207
0.001152
0.001123
0.001073
0.001063
0.001065
0.001112
0.001186
0.001209
0.001296
0.001317
0.001291
0.001225
0.001223
0.001209
0.001228
0.001209
0.001225
0.001230
0.001228
0.001238
0.001236
0.001186
0.001212
0.001209
0.001175
0.001217
0.001223
0.001217
0.001188
0.001175
0.001196
0.001136
0.001170
0.001188
0.001162
0.001084
0.001086
0.001168
0.001173
0.001186
0.001141
0.001091
0.001107
0.001105
0.001128
0.001144
0.001199
0.001199
0.001230
0.001233
0.001265
0.001259
0.001267
0.001283
0.001251
0.001230
0.001291
0.001262
0.001259
0.001241
0.001225
0.001202
0.001199
0.001199
0.001236
0.001254
0.001307
0.001267
0.001272
0.001283
0.001251
0.001178
0.001165
0.001173
0.001147
0.001157
0.001183
0.001139
0.001120
0.001196
0.001251
0.001246
0.001288
0.001254
0.001251
0.001228
0.001236
0.001191
0.001139
0.001133
0.001149
0.001147
0.001144
0.001181
0.001204
0.001202
0.001241
0.001283
0.001283
0.001199
0.001175
0.001149
0.001154
0.001149
0.001199
0.001181
0.001139
0.001183
0.001196
0.001202
0.001220
0.001215
0.001186
0.001202
0.001246
0.001259
0.001241
0.001215
0.001199
0.001207
0.001191
0.001162
0.001212
0.001270
0.001259
0.001246
0.001262
0.001244
t0(sec) = 0.000000E+0
dt(sec) = 4.000000E-10
F3:INSP "
DESCRIPTOR_NAME    : WAVEDESC           
TEMPLATE_NAME      : LECROY_2_3         
COMM_TYPE          : word               
COMM_ORDER         : HIFIRST            
WAVE_DESCRIPTOR    : 346                
USER_TEXT          : 0                  
RES_DESC1          : 0                  
TRIGTIME_ARRAY     : 0                  
RIS_TIME_ARRAY     : 0                  
RES_ARRAY1         : 0                  
WAVE_ARRAY_1       : 9952               
WAVE_ARRAY_2       : 0                  
RES_ARRAY2         : 0                  
RES_ARRAY3         : 0                  
INSTRUMENT_NAME    : LECROYHDO6104      
INSTRUMENT_NUMBER  : 6308               
TRACE_LABEL        :                    
RESERVED1          : 4976               
RESERVED2          : 0                  
WAVE_ARRAY_COUNT   : 4976               
PNTS_PER_SCREEN    : 5000               
FIRST_VALID_PNT    : 0                  
LAST_VALID_PNT     : 4975               
FIRST_POINT        : 0                  
SPARSING_FACTOR    : 1                  
SEGMENT_INDEX      : 0                  
SUBARRAY_COUNT     : 1                  
SWEEPS_PER_ACQ     : 200                
POINTS_PER_PAIR    : 0                  
PAIR_OFFSET        : 0                  
VERTICAL_GAIN      : 2.4989e-006        
VERTICAL_OFFSET    : 1.6500e-002        
MAX_VALUE          : 3.0578e+004        
MIN_VALUE          : 1.4827e+004        
NOMINAL_BITS       : 16                 
NOM_SUBARRAY_COUNT : 1                  
HORIZ_INTERVAL     : 4.0000e-010        
HORIZ_OFFSET       : -2.00000000e-007   
PIXEL_OFFSET       : -2.10000000e-007   
VERTUNIT           : Unit Name = V
HORUNIT            : Unit Name = S
HORIZ_UNCERTAINTY  : 1.0000e-012        
TRIGGER_TIME       : Date = APR 17, 2024, Time = 19:19:54.444956283
ACQ_DURATION       : 9.9988e+000        
RECORD_TYPE        : single_sweep       
PROCESSING_DONE    : no_processing      
RESERVED5          : 0                  
RIS_SWEEPS         : 1                  
TIMEBASE           : 200_ns/div         
VERT_COUPLING      : DC_50_Ohms         
PROBE_ATT          : 1.0000e+000        
FIXED_VERT_GAIN    : 5_mV/div           
BANDWIDTH_LIMIT    : off                
VERTICAL_VERNIER   : 1.0000e+000        
ACQ_VERT_OFFSET    : 0.0000e+000        
WAVE_SOURCE        : UNKNOWN            
"
0.000490
0.000427
0.000460
0.000515
0.000425
0.000467
0.000497
0.000455
0.000425
0.000475
0.000437
0.000440
0.000435
0.000510
0.000400
0.000440
0.000477
0.000450
0.000432
0.000487
0.000470
0.000442
0.000437
0.000515
0.000442
0.000465
0.000487
0.000450
0.000440
0.000477
0.000472
0.000432
0.000460
0.000507
0.000435
0.000462
0.000495
0.000470
0.000432
0.000482
0.000460
0.000440
0.000462
0.000460
0.000415
0.000462
0.000480
0.000482
0.000427
0.000510
0.000495
0.000460
0.000460
0.000492
0.000440
0.000467
0.000497
0.000487
0.000425
0.000485
0.000460
0.000427
0.000450
0.000477
0.000450
0.000462
0.000502
0.000472
0.000442
0.000457
0.000447
0.000440
0.000455
0.000517
0.000470
0.000485
0.000515
0.000497
0.000447
0.000505
0.000460
0.000457
0.000457
0.000470
0.000437
0.000422
0.000445
0.000447
0.000395
0.000480
0.000447
0.000455
0.000472
0.000510
0.000435
0.000500
0.000490
0.000485
0.000440
0.000525
0.000475
0.000445
0.000460
0.000505
0.000460
0.000457
0.000465
0.000462
0.000445
0.000495
0.000452
0.000447
0.000467
0.000505
0.000425
0.000470
0.000502
0.000475
0.000457
0.000500
0.000465
0.000442
0.000452
0.000495
0.000470
0.000457
0.000470
0.000480
0.000412
0.000490
0.000457
0.000450
0.000452
0.000492
0.000435
0.000450
0.000490
0.000455
0.000432
0.000487
0.000475
0.000445
0.000460
0.000520
0.000437
0.000462
0.000515
0.000475
0.000412
0.000487
0.000450
0.000445
0.000442
0.000470
0.000442
0.000462
0.000480
0.000482
0.000435
0.000510
0.000477
0.000452
0.000487
0.000520
0.000472
0.000475
0.000500
0.000500
0.000460
0.000490
0.000482
0.000475
0.000442
0.000500
0.000437
0.000450
0.000475
0.000482
0.000432
0.000477
0.000487
0.000475
0.000462
0.000502
0.000457
0.000470
0.000495
0.000510
0.000437
0.000487
0.000495
0.000460
0.000455
0.000497
0.000440
0.000422
0.000440
0.000457
0.000392
0.000460
0.000462
0.000450
0.000440
0.000490
0.000455
0.000485
0.000477
0.000497
0.000470
0.000477
0.000432
0.000487
0.000435
0.000492
0.000445
0.000457
0.000460
0.000482
0.000440
0.000480
0.000495
0.000475
0.000445
0.000495
0.000482
0.000455
0.000467
0.000480
0.000440
0.000487
0.000437
0.000447
0.000452
0.000512
0.000450
0.000432
0.000485
0.000457
0.000442
0.000477
0.000490
0.000465
0.000430
0.000495
0.000455
0.000450
0.000477
0.000470
0.000427
0.000492
0.000480
0.000445
0.000497
0.000487
0.000455
0.000467
0.000457
0.000510
0.000432
0.000487
0.000495
0.000460
0.000452
0.000497
0.000435
0.000430
0.000477
0.000495
0.000450
0.000460
0.000475
0.000460
0.000432
0.000500
0.000470
0.000490
0.000487
0.000492
0.000437
0.000460
0.000475
0.000470
0.000452
0.000482
0.000475
0.000482
0.000490
0.000480
0.000417
0.000480
0.000460
0.000460
0.000460
0.000515
0.000472
0.000455
0.000465
0.000485
0.000442
0.000462
0.000480
0.000460
0.000430
0.000485
0.000455
0.000450
0.000472
0.000497
0.000435
0.000487
0.000472
0.000442
0.000452
0.000485
0.000455
0.000445
0.000462
0.000490
0.000442
0.000475
0.000505
0.000507
0.000447
0.000497
0.000462
0.000442
0.000462
0.000502
0.000472
0.000480
0.000480
0.000465
0.000462
0.000502
0.000460
0.000447
0.000472
0.000500
0.000442
0.000450
0.000477
0.000477
0.000447
0.000467
0.000470
0.000475
0.000470
0.000477
0.000447
0.000467
0.000480
0.000455
0.000455
0.000497
0.000457
0.000460
0.000472
0.000507
0.000452
0.000475
0.000495
0.000472
0.000447
0.000495
0.000470
0.000460
0.000462
0.000482
0.000437
0.000462
0.000470
0.000507
0.000465
0.000492
0.000492
0.000472
0.000472
0.000495
0.000457
0.000480
0.000480
0.000512
0.000440
0.000485
0.000482
0.000492
0.000467
0.000492
0.000465
0.000475
0.000505
0.000492
0.000447
0.000492
0.000487
0.000452
0.000465
0.000497
0.000455
0.000442
0.000467
0.000465
0.000440
0.000485
0.000460
0.000457
0.000450
0.000512
0.000475
0.000475
0.000475
0.000480
0.000445
0.000492
0.000457
0.000477
0.000452
0.000467
0.000432
0.000442
0.000442
0.000465
0.000447
0.000467
0.000465
0.000462
0.000477
0.000485
0.000500
0.000492
0.000440
0.000430
0.000385
0.000415
0.000387
0.000412
0.000460
0.000520
0.000520
0.000487
0.000480
0.000470
0.000407
0.000457
0.000460
0.000512
0.000487
0.000477
0.000422
0.000405
0.000400
0.000452
0.000480
0.000570
0.000597
0.000587
0.000515
0.000487
0.000400
0.000370
0.000380
0.000435
0.000465
0.000515
0.000515
0.000510
0.000460
0.000465
0.000492
0.000500
0.000517
0.000462
0.000392
0.000387
0.000350
0.000380
0.000420
0.000500
0.000497
0.000502
0.000482
0.000452
0.000432
0.000462
0.000480
0.000562
0.000555
0.000580
0.000545
0.000520
0.000420
0.000392
0.000332
0.000380
0.000362
0.000412
0.000450
0.000455
0.000442
0.000430
0.000492
0.000567
0.000540
0.000615
0.000545
0.000455
0.000360
0.000335
0.000307
0.000327
0.000335
0.000352
0.000312
0.000355
0.000400
0.000475
0.000597
0.000702
0.000710
0.000697
0.000640
0.000582
0.000525
0.000535
0.000567
0.000560
0.000497
0.000507
0.000457
0.000395
0.000407
0.000480
0.000462
0.000487
0.000445
0.000365
0.000355
0.000380
0.000345
0.000367
0.000440
0.000500
0.000527
0.000622
0.000625
0.000655
0.000560
0.000507
0.000402
0.000260
0.000177
0.000152
0.000057
0.000122
0.000167
0.000307
0.000420
0.000580
0.000700
0.000822
0.000912
0.001027
0.001012
0.000935
0.000777
0.000607
0.000367
0.000195
-0.000008
-0.000132
-0.000232
-0.000277
-0.000382
-0.000415
-0.000505
-0.000552
-0.000615
-0.000657
-0.000735
-0.000827
-0.000947
-0.001030
-0.001274
-0.001467
-0.001659
-0.001807
-0.001927
-0.001914
-0.001837
-0.001652
-0.001439
-0.001239
-0.001030
-0.000880
-0.000800
-0.000705
-0.000687
-0.000577
-0.000580
-0.000657
-0.000747
-0.000815
-0.000952
-0.000975
-0.000935
-0.000830
-0.000770
-0.000700
-0.000687
-0.000717
-0.000732
-0.000725
-0.000682
-0.000637
-0.000572
-0.000492
-0.000512
-0.000427
-0.000467
-0.000530
-0.000592
-0.000597
-0.000655
-0.000592
-0.000530
-0.000400
-0.000327
-0.000220
-0.000132
-0.000127
-0.000142
-0.000165
-0.000227
-0.000270
-0.000375
-0.000410
-0.000445
-0.000382
-0.000385
-0.000295
-0.000185
-0.000030
0.000045
0.000100
0.000095
0.000047
-0.000077
-0.000202
-0.000285
-0.000430
-0.000555
-0.000577
-0.000597
-0.000507
-0.000402
-0.000302
-0.000182
-0.000050
0.000047
0.000195
0.000292
0.000367
0.000357
0.000342
0.000207
0.000107
-0.000142
-0.000270
-0.000385
-0.000472
-0.000470
-0.000390
-0.000362
-0.000250
-0.000152
-0.000040
0.000030
0.000165
0.000210
0.000252
0.000277
0.000292
0.000212
0.000157
0.000055
-0.000062
-0.000210
-0.000240
-0.000317
-0.000412
-0.000410
-0.000357
-0.000332
-0.000257
-0.000185
-0.000053
0.000065
0.000182
0.000302
0.000340
0.000310
0.000315
0.000180
0.000095
-0.000005
-0.000072
-0.000167
-0.000150
-0.000155
-0.000120
-0.000075
0.000012
0.000047
0.000097
0.000115
0.000160
0.000100
0.000102
0.000095
0.000055
0.000070
0.000080
0.000042
0.000050
0.000065
0.000057
0.000015
0.000022
0.000010
-0.000003
-0.000038
0.000015
0.000037
0.000102
0.000105
0.000125
0.000045
0.000067
0.000077
0.000080
0.000090
0.000162
0.000150
0.000147
0.000135
0.000112
0.000037
0.000042
-0.000000
-0.000030
-0.000062
-0.000055
-0.000053
-0.000035
0.000027
0.000107
0.000097
0.000180
0.000195
0.000180
0.000200
0.000257
0.000247
0.000262
0.000225
0.000202
0.000125
0.000095
0.000107
0.000115
0.000075
0.000085
0.000082
0.000075
0.000065
0.000052
0.000020
0.000057
0.000115
0.000170
0.000192
0.000277
0.000307
0.000290
0.000282
0.000290
0.000232
0.000205
0.000150
0.000067
-0.000028
-0.000105
-0.000147
-0.000152
-0.000132
-0.000040
-0.000008
0.000082
0.000137
0.000250
0.000295
0.000415
0.000437
0.000455
0.000475
0.000442
0.000342
0.000297
0.000215
0.000145
0.000047
-0.000010
-0.000090
-0.000117
-0.000107
-0.000082
-0.000058
0.000095
0.000202
0.000290
0.000365
0.000435
0.000397
0.000370
0.000352
0.000340
0.000225
0.000160
0.000062
-0.000028
-0.000165
-0.000155
-0.000167
-0.000110
-0.000023
0.000080
0.000175
0.000267
0.000335
0.000370
0.000387
0.000440
0.000355
0.000315
0.000252
0.000217
0.000100
0.000065
0.000087
0.000095
0.000080
0.000132
0.000172
0.000202
0.000232
0.000275
0.000255
0.000242
0.000227
0.000195
0.000167
0.000180
0.000140
0.000125
0.000110
0.000152
0.000132
0.000177
0.000222
0.000222
0.000215
0.000252
0.000230
0.000220
0.000190
0.000192
0.000132
0.000127
0.000137
0.000157
0.000100
0.000205
0.000245
0.000257
0.000307
0.000372
0.000332
0.000342
0.000350
0.000340
0.000290
0.000252
0.000215
0.000135
0.000115
0.000137
0.000090
0.000150
0.000215
0.000252
0.000257
0.000335
0.000297
0.000270
0.000240
0.000265
0.000185
0.000172
0.000132
0.000132
0.000080
0.000117
0.000137
0.000145
0.000167
0.000250
0.000292
0.000372
0.000400
0.000410
0.000367
0.000375
0.000345
0.000302
0.000252
0.000222
0.000162
0.000112
0.000090
0.000125
0.000127
0.000177
0.000235
0.000330
0.000365
0.000405
0.000390
0.000370
0.000337
0.000302
0.000257
0.000210
0.000157
0.000125
0.000090
0.000120
0.000122
0.000180
0.000240
0.000285
0.000322
0.000382
0.000400
0.000407
0.000390
0.000370
0.000307
0.000307
0.000227
0.000177
0.000142
0.000150
0.000135
0.000157
0.000165
0.000222
0.000200
0.000232
0.000267
0.000275
0.000265
0.000317
0.000280
0.000247
0.000262
0.000212
0.000172
0.000187
0.000202
0.000232
0.000232
0.000330
0.000347
0.000367
0.000392
0.000460
0.000397
0.000400
0.000390
0.000317
0.000242
0.000252
0.000197
0.000142
0.000167
0.000182
0.000167
0.000180
0.000232
0.000290
0.000247
0.000355
0.000347
0.000322
0.000322
0.000327
0.000220
0.000270
0.000247
0.000227
0.000205
0.000220
0.000217
0.000220
0.000225
0.000287
0.000277
0.000322
0.000340
0.000370
0.000335
0.000340
0.000305
0.000275
0.000240
0.000252
0.000222
0.000217
0.000272
0.000285
0.000277
0.000342
0.000360
0.000347
0.000380
0.000397
0.000345
0.000320
0.000280
0.000242
0.000192
0.000182
0.000162
0.000117
0.000175
0.000222
0.000220
0.000270
0.000302
0.000332
0.000325
0.000395
0.000367
0.000377
0.000307
0.000305
0.000270
0.000230
0.000225
0.000222
0.000185
0.000262
0.000257
0.000292
0.000300
0.000357
0.000355
0.000355
0.000385
0.000355
0.000300
0.000345
0.000305
0.000267
0.000225
0.000232
0.000202
0.000202
0.000227
0.000242
0.000235
0.000290
0.000320
0.000320
0.000327
0.000365
0.000345
0.000342
0.000357
0.000307
0.000252
0.000290
0.000215
0.000222
0.000205
0.000250
0.000225
0.000275
0.000287
0.000327
0.000310
0.000380
0.000407
0.000377
0.000372
0.000392
0.000330
0.000312
0.000280
0.000250
0.000197
0.000227
0.000215
0.000237
0.000252
0.000317
0.000307
0.000317
0.000375
0.000397
0.000330
0.000355
0.000335
0.000267
0.000242
0.000277
0.000205
0.000235
0.000257
0.000262
0.000287
0.000347
0.000352
0.000377
0.000385
0.000430
0.000380
0.000375
0.000362
0.000340
0.000272
0.000282
0.000282
0.000240
0.000235
0.000315
0.000310
0.000317
0.000392
0.000400
0.000365
0.000410
0.000390
0.000337
0.000305
0.000320
0.000235
0.000222
0.000250
0.000232
0.000210
0.000267
0.000297
0.000282
0.000330
0.000395
0.000365
0.000377
0.000395
0.000372
0.000310
0.000362
0.000325
0.000260
0.000247
0.000257
0.000240
0.000225
0.000230
0.000247
0.000200
0.000230
0.000280
0.000285
0.000290
0.000375
0.000327
0.000340
0.000362
0.000362
0.000307
0.000337
0.000315
0.000290
0.000302
0.000312
0.000300
0.000332
0.000335
0.000357
0.000295
0.000347
0.000315
0.000297
0.000307
0.000337
0.000305
0.000302
0.000315
0.000322
0.000287
0.000315
0.000322
0.000312
0.000325
0.000382
0.000345
0.000392
0.000387
0.000390
0.000315
0.000375
0.000325
0.000315
0.000297
0.000310
0.000240
0.000247
0.000295
0.000300
0.000267
0.000335
0.000367
0.000342
0.000347
0.000395
0.000360
0.000350
0.000345
0.000337
0.000297
0.000332
0.000310
0.000320
0.000345
0.000357
0.000342
0.000317
0.000360
0.000387
0.000342
0.000397
0.000385
0.000340
0.000340
0.000370
0.000320
0.000310
0.000315
0.000325
0.000297
0.000305
0.000302
0.000245
0.000232
0.000287
0.000242
0.000292
0.000360
0.000342
0.000342
0.000390
0.000350
0.000340
0.000327
0.000380
0.000322
0.000315
0.000332
0.000360
0.000300
0.000347
0.000345
0.000292
0.000300
0.000357
0.000330
0.000302
0.000340
0.000330
0.000297
0.000360
0.000357
0.000302
0.000330
0.000365
0.000330
0.000307
0.000347
0.000350
0.000317
0.000340
0.000355
0.000312
0.000297
0.000372
0.000305
0.000300
0.000312
0.000300
0.000285
0.000340
0.000352
0.000370
0.000330
0.000392
0.000377
0.000380
0.000432
0.000420
0.000375
0.000397
0.000377
0.000335
0.000310
0.000320
0.000282
0.000275
0.000292
0.000320
0.000257
0.000292
0.000302
0.000282
0.000310
0.000345
0.000322
0.000342
0.000337
0.000347
0.000290
0.000335
0.000335
0.000277
0.000295
0.000330
0.000312
0.000330
0.000377
0.000390
0.000360
0.000370
0.000365
0.000342
0.000297
0.000335
0.000275
0.000272
0.000285
0.000307
0.000287
0.000320
0.000327
0.000317
0.000327
0.000405
0.000377
0.000397
0.000412
0.000430
0.000380
0.000385
0.000395
0.000340
0.000357
0.000395
0.000340
0.000342
0.000357
0.000327
0.000295
0.000330
0.000312
0.000322
0.000340
0.000410
0.000355
0.000367
0.000387
0.000395
0.000332
0.000365
0.000390
0.000352
0.000347
0.000360
0.000337
0.000330
0.000335
0.000352
0.000337
0.000387
0.000402
0.000355
0.000340
0.000407
0.000365
0.000370
0.000395
0.000380
0.000352
0.000385
0.000367
0.000320
0.000302
0.000332
0.000280
0.000300
0.000312
0.000345
0.000317
0.000342
0.000367
0.000350
0.000355
0.000412
0.000367
0.000375
0.000390
0.000382
0.000320
0.000355
0.000350
0.000345
0.000352
0.000377
0.000340
0.000332
0.000330
0.000360
0.000327
0.000367
0.000375
0.000320
0.000330
0.000390
0.000315
0.000350
0.000365
0.000382
0.000325
0.000362
0.000365
0.000362
0.000352
0.000395
0.000370
0.000382
0.000392
0.000420
0.000370
0.000400
0.000395
0.000345
0.000317
0.000380
0.000342
0.000332
0.000382
0.000357
0.000312
0.000367
0.000350
0.000335
0.000337
0.000382
0.000345
0.000345
0.000375
0.000407
0.000325
0.000370
0.000357
0.000340
0.000330
0.000382
0.000335
0.000347
0.000370
0.000372
0.000327
0.000370
0.000370
0.000342
0.000350
0.000387
0.000355
0.000312
0.000347
0.000357
0.000327
0.000365
0.000377
0.000362
0.000365
0.000415
0.000390
0.000382
0.000402
0.000412
0.000362
0.000382
0.000380
0.000345
0.000327
0.000375
0.000337
0.000327
0.000352
0.000382
0.000350
0.000385
0.000372
0.000340
0.000362
0.000400
0.000400
0.000380
0.000422
0.000432
0.000357
0.000377
0.000377
0.000360
0.000357
0.000375
0.000365
0.000332
0.000342
0.000365
0.000332
0.000362
0.000345
0.000345
0.000330
0.000380
0.000380
0.000315
0.000345
0.000370
0.000322
0.000382
0.000367
0.000365
0.000385
0.000405
0.000385
0.000407
0.000392
0.000405
0.000390
0.000405
0.000430
0.000392
0.000355
0.000410
0.000365
0.000357
0.000392
0.000385
0.000377
0.000402
0.000377
0.000385
0.000357
0.000412
0.000390
0.000370
0.000370
0.000410
0.000345
0.000362
0.000352
0.000362
0.000302
0.000352
0.000367
0.000352
0.000372
0.000355
0.000347
0.000357
0.000387
0.000390
0.000352
0.000422
0.000405
0.000385
0.000400
0.000410
0.000370
0.000372
0.000380
0.000362
0.000372
0.000390
0.000347
0.000380
0.000337
0.000372
0.000347
0.000360
0.000377
0.000417
0.000390
0.000417
0.000407
0.000407
0.000420
0.000432
0.000382
0.000412
0.000402
0.000345
0.000350
0.000387
0.000355
0.000365
0.000365
0.000390
0.000377
0.000382
0.000395
0.000385
0.000362
0.000410
0.000380
0.000370
0.000412
0.000420
0.000360
0.000402
0.000375
0.000380
0.000372
0.000395
0.000370
0.000385
0.000372
0.000392
0.000370
0.000382
0.000392
0.000390
0.000375
0.000415
0.000375
0.000377
0.000397
0.000390
0.000387
0.000422
0.000397
0.000405
0.000362
0.000427
0.000382
0.000397
0.000395
0.000397
0.000345
0.000385
0.000392
0.000375
0.000382
0.000462
0.000425
0.000390
0.000427
0.000397
0.000377
0.000380
0.000370
0.000390
0.000370
0.000390
0.000372
0.000365
0.000387
0.000395
0.000330
0.000367
0.000367
0.000367
0.000332
0.000395
0.000335
0.000360
0.000345
0.000357
0.000337
0.000402
0.000407
0.000380
0.000377
0.000417
0.000397
0.000380
0.000422
0.000430
0.000390
0.000397
0.000417
0.000370
0.000370
0.000397
0.000372
0.000377
0.000400
0.000397
0.000395
0.000412
0.000415
0.000397
0.000385
0.000435
0.000412
0.000377
0.000385
0.000402
0.000345
0.000355
0.000357
0.000367
0.000322
0.000400
0.000377
0.000362
0.000372
0.000400
0.000352
0.000380
0.000390
0.000382
0.000375
0.000435
0.000390
0.000377
0.000387
0.000437
0.000355
0.000370
0.000397
0.000382
0.000367
0.000417
0.000372
0.000390
0.000402
0.000410
0.000385
0.000372
0.000390
0.000375
0.000382
0.000370
0.000350
0.000385
0.000380
0.000432
0.000395
0.000412
0.000385
0.000357
0.000360
0.000380
0.000350
0.000350
0.000367
0.000400
0.000365
0.000392
0.000400
0.000410
0.000370
0.000415
0.000375
0.000385
0.000405
0.000397
0.000380
0.000375
0.000390
0.000357
0.000345
0.000392
0.000355
0.000352
0.000392
0.000410
0.000347
0.000440
0.000402
0.000415
0.000387
0.000442
0.000397
0.000375
0.000397
0.000405
0.000327
0.000390
0.000400
0.000382
0.000367
0.000402
0.000387
0.000390
0.000392
0.000395
0.000382
0.000420
0.000400
0.000390
0.000390
0.000432
0.000392
0.000365
0.000392
0.000422
0.000380
0.000382
0.000417
0.000390
0.000382
0.000430
0.000390
0.000395
0.000405
0.000417
0.000372
0.000450
0.000412
0.000405
0.000392
0.000435
0.000417
0.000407
0.000407
0.000427
0.000377
0.000395
0.000402
0.000380
0.000365
0.000430
0.000380
0.000387
0.000377
0.000385
0.000360
0.000390
0.000395
0.000342
0.000350
0.000420
0.000387
0.000380
0.000420
0.000420
0.000387
0.000422
0.000430
0.000407
0.000402
0.000455
0.000422
0.000397
0.000385
0.000430
0.000365
0.000407
0.000405
0.000402
0.000390
0.000440
0.000397
0.000410
0.000425
0.000422
0.000365
0.000432
0.000452
0.000425
0.000385
0.000425
0.000387
0.000365
0.000362
0.000402
0.000362
0.000390
0.000387
0.000370
0.000350
0.000430
0.000367
0.000370
0.000407
0.000400
0.000387
0.000390
0.000395
0.000347
0.000320
0.000380
0.000367
0.000342
0.000355
0.000355
0.000335
0.000365
0.000377
0.000387
0.000375
0.000440
0.000427
0.000395
0.000410
0.000430
0.000370
0.000415
0.000440
0.000422
0.000370
0.000445
0.000410
0.000397
0.000422
0.000412
0.000380
0.000427
0.000415
0.000412
0.000382
0.000422
0.000377
0.000385
0.000387
0.000445
0.000365
0.000407
0.000440
0.000390
0.000387
0.000420
0.000390
0.000365
0.000367
0.000397
0.000327
0.000380
0.000372
0.000370
0.000375
0.000410
0.000407
0.000382
0.000382
0.000420
0.000350
0.000407
0.000422
0.000395
0.000390
0.000440
0.000402
0.000372
0.000375
0.000382
0.000332
0.000345
0.000347
0.000362
0.000322
0.000390
0.000382
0.000390
0.000412
0.000430
0.000345
0.000387
0.000422
0.000400
0.000372
0.000435
0.000407
0.000347
0.000405
0.000407
0.000357
0.000422
0.000405
0.000415
0.000385
0.000422
0.000397
0.000380
0.000375
0.000432
0.000380
0.000400
0.000445
0.000412
0.000395
0.000447
0.000427
0.000405
0.000407
0.000437
0.000367
0.000407
0.000410
0.000407
0.000390
0.000435
0.000422
0.000392
0.000442
0.000460
0.000382
0.000415
0.000415
0.000407
0.000405
0.000437
0.000405
0.000435
0.000435
0.000467
0.000410
0.000457
0.000450
0.000432
0.000422
0.000452
0.000412
0.000382
0.000397
0.000385
0.000355
0.000392
0.000417
0.000407
0.000380
0.000420
0.000357
0.000387
0.000430
0.000432
0.000382
0.000402
0.000427
0.000427
0.000382
0.000455
0.000415
0.000407
0.000427
0.000462
0.000422
0.000400
0.000397
0.000422
0.000360
0.000442
0.000427
0.000392
0.000420
0.000437
0.000372
0.000390
0.000417
0.000425
0.000385
0.000455
0.000435
0.000405
0.000425
0.000442
0.000385
0.000400
0.000442
0.000400
0.000390
0.000447
0.000407
0.000360
0.000410
0.000420
0.000370
0.000412
0.000402
0.000417
0.000387
0.000430
0.000425
0.000390
0.000412
0.000445
0.000415
0.000407
0.000457
0.000395
0.000347
0.000437
0.000380
0.000387
0.000415
0.000402
0.000365
0.000385
0.000385
0.000390
0.000375
0.000425
0.000405
0.000395
0.000410
0.000467
0.000387
0.000442
0.000457
0.000422
0.000380
0.000445
0.000415
0.000400
0.000412
0.000445
0.000390
0.000392
0.000415
0.000417
0.000367
0.000425
0.000417
0.000372
0.000380
0.000447
0.000360
0.000387
0.000425
0.000407
0.000365
0.000427
0.000432
0.000397
0.000405
0.000472
0.000385
0.000425
0.000452
0.000415
0.000382
0.000435
0.000412
0.000352
0.000380
0.000427
0.000367
0.000377
0.000427
0.000430
0.000372
0.000435
0.000435
0.000397
0.000387
0.000430
0.000385
0.000412
0.000447
0.000425
0.000392
0.000435
0.000397
0.000377
0.000400
0.000427
0.000392
0.000425
0.000442
0.000430
0.000382
0.000457
0.000430
0.000385
0.000395
0.000470
0.000385
0.000397
0.000432
0.000417
0.000382
0.000450
0.000420
0.000427
0.000447
0.000465
0.000415
0.000412
0.000440
0.000445
0.000370
0.000425
0.000397
0.000380
0.000362
0.000417
0.000385
0.000425
0.000420
0.000435
0.000390
0.000415
0.000415
0.000392
0.000387
0.000427
0.000400
0.000387
0.000415
0.000420
0.000357
0.000417
0.000427
0.000392
0.000380
0.000430
0.000360
0.000427
0.000417
0.000415
0.000357
0.000410
0.000405
0.000387
0.000390
0.000442
0.000412
0.000425
0.000455
0.000480
0.000430
0.000472
0.000470
0.000442
0.000437
0.000452
0.000400
0.000415
0.000425
0.000425
0.000375
0.000445
0.000410
0.000402
0.000400
0.000452
0.000410
0.000437
0.000437
0.000442
0.000415
0.000462
0.000455
0.000427
0.000430
0.000472
0.000415
0.000412
0.000440
0.000417
0.000382
0.000445
0.000420
0.000392
0.000380
0.000427
0.000362
0.000392
0.000410
0.000410
0.000397
0.000467
0.000442
0.000407
0.000430
0.000450
0.000410
0.000407
0.000442
0.000435
0.000407
0.000450
0.000415
0.000375
0.000422
0.000435
0.000392
0.000405
0.000442
0.000445
0.000380
0.000445
0.000415
0.000400
0.000365
0.000402
0.000360
0.000387
0.000392
0.000422
0.000357
0.000430
0.000412
0.000380
0.000415
0.000447
0.000390
0.000410
0.000402
0.000425
0.000400
0.000435
0.000412
0.000402
0.000377
0.000427
0.000392
0.000420
0.000435
0.000415
0.000362
0.000397
0.000380
0.000370
0.000395
0.000432
0.000395
0.000405
0.000402
0.000417
0.000390
0.000387
0.000420
0.000385
0.000372
0.000450
0.000400
0.000377
0.000447
0.000432
0.000402
0.000442
0.000437
0.000447
0.000417
0.000457
0.000395
0.000407
0.000417
0.000432
0.000390
0.000412
0.000427
0.000392
0.000415
0.000440
0.000397
0.000392
0.000435
0.000400
0.000365
0.000427
0.000387
0.000397
0.000402
0.000437
0.000412
0.000420
0.000437
0.000452
0.000400
0.000445
0.000452
0.000435
0.000427
0.000467
0.000412
0.000395
0.000432
0.000437
0.000395
0.000412
0.000435
0.000432
0.000417
0.000482
0.000417
0.000410
0.000440
0.000422
0.000355
0.000447
0.000400
0.000412
0.000395
0.000425
0.000407
0.000410
0.000420
0.000452
0.000410
0.000450
0.000452
0.000427
0.000400
0.000440
0.000372
0.000390
0.000387
0.000392
0.000347
0.000405
0.000402
0.000407
0.000420
0.000437
0.000427
0.000455
0.000460
0.000475
0.000447
0.000457
0.000440
0.000417
0.000407
0.000470
0.000405
0.000417
0.000435
0.000445
0.000402
0.000442
0.000437
0.000432
0.000430
0.000452
0.000457
0.000460
0.000470
0.000457
0.000410
0.000480
0.000420
0.000422
0.000385
0.000417
0.000362
0.000365
0.000365
0.000390
0.000397
0.000442
0.000445
0.000432
0.000440
0.000477
0.000462
0.000445
0.000422
0.000452
0.000390
0.000435
0.000390
0.000412
0.000402
0.000412
0.000397
0.000405
0.000400
0.000417
0.000407
0.000415
0.000410
0.000405
0.000360
0.000430
0.000380
0.000387
0.000392
0.000377
0.000377
0.000397
0.000395
0.000420
0.000437
0.000460
0.000445
0.000445
0.000455
0.000437
0.000382
0.000425
0.000415
0.000430
0.000442
0.000457
0.000417
0.000420
0.000402
0.000410
0.000385
0.000435
0.000405
0.000445
0.000385
0.000435
0.000392
0.000420
0.000425
0.000450
0.000412
0.000462
0.000450
0.000432
0.000405
0.000430
0.000395
0.000385
0.000412
0.000410
0.000410
0.000447
0.000395
0.000420
0.000385
0.000402
0.000420
0.000390
0.000420
0.000427
0.000382
0.000417
0.000417
0.000412
0.000402
0.000447
0.000380
0.000437
0.000420
0.000430
0.000412
0.000437
0.000430
0.000412
0.000407
0.000417
0.000420
0.000432
0.000425
0.000430
0.000405
0.000435
0.000422
0.000447
0.000435
0.000452
0.000415
0.000427
0.000447
0.000435
0.000422
0.000405
0.000407
0.000397
0.000362
0.000410
0.000385
0.000400
0.000402
0.000442
0.000407
0.000425
0.000420
0.000440
0.000407
0.000455
0.000410
0.000432
0.000417
0.000455
0.000452
0.000452
0.000435
0.000452
0.000407
0.000425
0.000417
0.000432
0.000430
0.000472
0.000412
0.000442
0.000420
0.000450
0.000415
0.000425
0.000395
0.000392
0.000380
0.000417
0.000415
0.000447
0.000442
0.000417
0.000435
0.000435
0.000450
0.000425
0.000410
0.000432
0.000385
0.000420
0.000382
0.000425
0.000407
0.000445
0.000420
0.000445
0.000422
0.000442
0.000432
0.000435
0.000410
0.000432
0.000395
0.000432
0.000400
0.000407
0.000405
0.000452
0.000435
0.000420
0.000397
0.000410
0.000405
0.000447
0.000405
0.000435
0.000447
0.000437
0.000417
0.000450
0.000430
0.000450
0.000450
0.000465
0.000452
0.000460
0.000430
0.000470
0.000432
0.000432
0.000427
0.000415
0.000415
0.000457
0.000397
0.000455
0.000417
0.000425
0.000417
0.000445
0.000437
0.000452
0.000432
0.000447
0.000412
0.000450
0.000427
0.000425
0.000415
0.000437
0.000467
0.000445
0.000410
0.000465
0.000432
0.000437
0.000470
0.000442
0.000437
0.000450
0.000422
0.000447
0.000422
0.000457
0.000447
0.000442
0.000432
0.000462
0.000410
0.000455
0.000435
0.000450
0.000427
0.000455
0.000435
0.000445
0.000432
0.000440
0.000427
0.000457
0.000442
0.000435
0.000415
0.000427
0.000420
0.000407
0.000430
0.000460
0.000422
0.000470
0.000440
0.000442
0.000417
0.000470
0.000422
0.000450
0.000447
0.000457
0.000407
0.000470
0.000445
0.000435
0.000412
0.000462
0.000445
0.000412
0.000415
0.000447
0.000435
0.000447
0.000410
0.000467
0.000417
0.000437
0.000425
0.000437
0.000422
0.000447
0.000435
0.000447
0.000465
0.000477
0.000427
0.000480
0.000447
0.000402
0.000425
0.000435
0.000445
0.000452
0.000415
0.000450
0.000417
0.000442
0.000420
0.000427
0.000405
0.000407
0.000412
0.000442
0.000422
0.000425
0.000447
0.000470
0.000417
0.000452
0.000420
0.000412
0.000412
0.000407
0.000420
0.000415
0.000410
0.000447
0.000427
0.000420
0.000390
0.000417
0.000385
0.000412
0.000377
0.000410
0.000425
0.000435
0.000427
0.000420
0.000435
0.000452
0.000410
0.000455
0.000440
0.000457
0.000435
0.000485
0.000402
0.000430
0.000432
0.000427
0.000392
0.000450
0.000447
0.000430
0.000440
0.000482
0.000405
0.000422
0.000452
0.000457
0.000445
0.000477
0.000452
0.000467
0.000457
0.000472
0.000445
0.000457
0.000457
0.000455
0.000420
0.000450
0.000465
0.000442
0.000390
0.000447
0.000405
0.000415
0.000410
0.000430
0.000400
0.000415
0.000410
0.000422
0.000447
0.000472
0.000445
0.000447
0.000450
0.000447
0.000415
0.000450
0.000417
0.000410
0.000420
0.000457
0.000420
0.000447
0.000437
0.000442
0.000417
0.000430
0.000462
0.000417
0.000430
0.000470
0.000430
0.000437
0.000417
0.000462
0.000407
0.000450
0.000457
0.000440
0.000422
0.000457
0.000417
0.000435
0.000412
0.000450
0.000387
0.000455
0.000450
0.000465
0.000427
0.000430
0.000412
0.000412
0.000417
0.000460
0.000425
0.000467
0.000450
0.000432
0.000432
0.000455
0.000417
0.000450
0.000445
0.000445
0.000432
0.000442
0.000420
0.000442
0.000412
0.000447
0.000412
0.000427
0.000430
0.000405
0.000370
0.000430
0.000425
0.000410
0.000427
0.000462
0.000427
0.000420
0.000455
0.000455
0.000422
0.000467
0.000412
0.000427
0.000425
0.000460
0.000415
0.000442
0.000460
0.000450
0.000402
0.000480
0.000432
0.000395
0.000430
0.000470
0.000440
0.000425
0.000465
0.000452
0.000410
0.000465
0.000440
0.000455
0.000445
0.000470
0.000415
0.000445
0.000487
0.000442
0.000380
0.000472
0.000445
0.000400
0.000417
0.000462
0.000395
0.000400
0.000437
0.000425
0.000395
0.000447
0.000427
0.000407
0.000417
0.000477
0.000407
0.000447
0.000475
0.000467
0.000435
0.000462
0.000457
0.000440
0.000455
0.000475
0.000427
0.000420
0.000477
0.000447
0.000375
0.000425
0.000415
0.000385
0.000405
0.000450
0.000410
0.000425
0.000477
0.000470
0.000430
0.000460
0.000432
0.000437
0.000440
0.000472
0.000410
0.000412
0.000437
0.000430
0.000365
0.000440
0.000407
0.000395
0.000420
0.000470
0.000420
0.000397
0.000462
0.000460
0.000410
0.000462
0.000467
0.000420
0.000427
0.000470
0.000415
0.000430
0.000420
0.000445
0.000412
0.000440
0.000437
0.000430
0.000402
0.000427
0.000392
0.000422
0.000445
0.000422
0.000387
0.000420
0.000437
0.000412
0.000397
0.000477
0.000442
0.000435
0.000477
0.000477
0.000437
0.000467
0.000457
0.000455
0.000420
0.000457
0.000447
0.000435
0.000457
0.000472
0.000400
0.000447
0.000450
0.000435
0.000427
0.000487
0.000417
0.000420
0.000435
0.000480
0.000415
0.000475
0.000467
0.000432
0.000442
0.000462
0.000422
0.000452
0.000440
0.000442
0.000420
0.000457
0.000425
0.000402
0.000425
0.000455
0.000392
0.000425
0.000442
0.000430
0.000402
0.000442
0.000435
0.000415
0.000422
0.000467
0.000430
0.000440
0.000472
0.000465
0.000405
0.000475
0.000442
0.000417
0.000417
0.000460
0.000440
0.000405
0.000437
0.000457
0.000372
0.000450
0.000455
0.000427
0.000442
0.000482
0.000445
0.000447
0.000467
0.000490
0.000420
0.000492
0.000477
0.000455
0.000422
0.000472
0.000417
0.000422
0.000417
0.000460
0.000427
0.000442
0.000440
0.000425
0.000400
0.000462
0.000435
0.000447
0.000470
0.000472
0.000437
0.000457
0.000455
0.000440
0.000420
0.000492
0.000427
0.000435
0.000445
0.000472
0.000422
0.000422
0.000432
0.000447
0.000432
0.000442
0.000430
0.000437
0.000440
0.000460
0.000427
0.000457
0.000437
0.000425
0.000427
0.000480
0.000442
0.000427
0.000437
0.000430
0.000405
0.000437
0.000452
0.000450
0.000420
0.000480
0.000460
0.000472
0.000450
0.000462
0.000470
0.000500
0.000485
0.000447
0.000442
0.000450
0.000405
0.000445
0.000452
0.000472
0.000422
0.000437
0.000470
0.000445
0.000440
0.000472
0.000452
0.000467
0.000467
0.000482
0.000435
0.000440
0.000460
0.000460
0.000420
0.000457
0.000430
0.000430
0.000467
0.000480
0.000405
0.000455
0.000460
0.000462
0.000440
0.000482
0.000442
0.000437
0.000462
0.000475
0.000440
0.000475
0.000452
0.000462
0.000455
0.000485
0.000415
0.000432
0.000427
0.000440
0.000417
0.000437
0.000462
0.000447
0.000422
0.000477
0.000440
0.000460
0.000467
0.000472
0.000415
0.000475
0.000417
0.000417
0.000400
0.000432
0.000427
0.000422
0.000440
0.000472
0.000415
0.000432
0.000420
0.000467
0.000415
0.000472
0.000405
0.000417
0.000450
0.000445
0.000395
0.000440
0.000445
0.000465
0.000430
0.000477
0.000457
0.000472
0.000465
0.000460
0.000447
0.000460
0.000467
0.000452
0.000427
0.000490
0.000425
0.000435
0.000445
0.000442
0.000425
0.000445
0.000452
0.000462
0.000407
0.000440
0.000455
0.000410
0.000450
0.000470
0.000430
0.000452
0.000442
0.000442
0.000405
0.000447
0.000437
0.000437
0.000447
0.000467
0.000427
0.000462
0.000462
0.000435
0.000417
0.000512
0.000482
0.000450
0.000465
0.000472
0.000425
0.000437
0.000460
0.000410
0.000400
0.000460
0.000432
0.000455
0.000435
0.000442
0.000432
0.000452
0.000455
0.000480
0.000415
0.000475
0.000460
0.000437
0.000460
0.000482
0.000432
0.000442
0.000452
0.000452
0.000415
0.000450
0.000442
0.000447
0.000405
0.000455
0.000422
0.000455
0.000440
0.000442
0.000407
0.000475
0.000437
0.000432
0.000425
0.000475
0.000442
0.000452
0.000470
0.000450
0.000420
0.000450
0.000445
0.000432
0.000427
0.000455
0.000400
0.000445
0.000442
0.000415
0.000415
0.000455
0.000432
0.000430
0.000437
0.000465
0.000412
0.000440
0.000442
0.000435
0.000407
0.000452
0.000470
0.000430
0.000430
0.000482
0.000425
0.000485
0.000465
0.000455
0.000452
0.000490
0.000437
0.000417
0.000425
0.000447
0.000390
0.000427
0.000422
0.000415
0.000400
0.000437
0.000427
0.000405
0.000410
0.000445
0.000417
0.000457
0.000462
0.000440
0.000420
0.000470
0.000432
0.000435
0.000412
0.000460
0.000405
0.000450
0.000455
0.000442
0.000427
0.000475
0.000435
0.000430
0.000407
0.000465
0.000420
0.000442
0.000465
0.000415
0.000390
0.000460
0.000415
0.000415
0.000422
0.000445
0.000422
0.000445
0.000430
0.000457
0.000432
0.000455
0.000437
0.000447
0.000445
0.000460
0.000452
0.000445
0.000455
0.000435
0.000422
0.000500
0.000477
0.000470
0.000442
0.000492
0.000430
0.000442
0.000447
0.000452
0.000410
0.000460
0.000425
0.000450
0.000422
0.000462
0.000415
0.000435
0.000490
0.000457
0.000422
0.000485
0.000447
0.000405
0.000415
0.000470
0.000420
0.000422
0.000457
0.000460
0.000412
0.000445
0.000450
0.000432
0.000435
0.000462
0.000415
0.000437
0.000437
0.000435
0.000415
0.000442
0.000430
0.000427
0.000435
0.000465
0.000427
0.000465
0.000472
0.000460
0.000420
0.000492
0.000467
0.000475
0.000447
0.000472
0.000472
0.000465
0.000472
0.000452
0.000425
0.000460
0.000445
0.000450
0.000440
0.000440
0.000407
0.000412
0.000452
0.000455
0.000410
0.000450
0.000455
0.000412
0.000432
0.000460
0.000417
0.000432
0.000440
0.000442
0.000415
0.000467
0.000445
0.000437
0.000440
0.000445
0.000437
0.000430
0.000432
0.000452
0.000420
0.000452
0.000450
0.000420
0.000432
0.000467
0.000432
0.000455
0.000430
0.000452
0.000422
0.000452
0.000445
0.000407
0.000420
0.000442
0.000395
0.000445
0.000420
0.000455
0.000425
0.000455
0.000417
0.000437
0.000435
0.000422
0.000402
0.000445
0.000442
0.000437
0.000452
0.000475
0.000440
0.000470
0.000450
0.000495
0.000432
0.000450
0.000457
0.000427
0.000442
0.000502
0.000435
0.000460
0.000442
0.000440
0.000407
0.000447
0.000465
0.000435
0.000460
0.000482
0.000450
0.000440
0.000475
0.000477
0.000442
0.000445
0.000442
0.000437
0.000415
0.000467
0.000420
0.000462
0.000437
0.000437
0.000435
0.000430
0.000445
0.000410
0.000427
0.000465
0.000430
0.000437
0.000437
0.000457
0.000425
0.000467
0.000482
0.000467
0.000452
0.000450
0.000445
0.000425
0.000422
0.000445
0.000417
0.000410
0.000430
0.000432
0.000425
0.000455
0.000417
0.000420
0.000462
0.000500
0.000435
0.000485
0.000465
0.000452
0.000422
0.000450
0.000445
0.000445
0.000462
0.000475
0.000467
0.000470
0.000455
0.000457
0.000435
0.000485
0.000470
0.000435
0.000415
0.000477
0.000435
0.000442
0.000475
0.000477
0.000447
0.000470
0.000447
0.000462
0.000445
0.000452
0.000432
0.000445
0.000470
0.000467
0.000462
0.000475
0.000447
0.000455
0.000437
0.000480
0.000460
0.000452
0.000470
0.000457
0.000435
0.000437
0.000420
0.000420
0.000417
0.000450
0.000420
0.000445
0.000445
0.000445
0.000417
0.000447
0.000460
0.000450
0.000472
0.000482
0.000437
0.000457
0.000435
0.000445
0.000407
0.000445
0.000437
0.000432
0.000452
0.000450
0.000447
0.000475
0.000430
0.000457
0.000430
0.000452
0.000455
0.000432
0.000435
0.000462
0.000440
0.000465
0.000472
0.000490
0.000470
0.000477
0.000460
0.000477
0.000462
0.000445
0.000447
0.000465
0.000467
0.000460
0.000460
0.000457
0.000437
0.000455
0.000432
0.000472
0.000432
0.000430
0.000445
0.000462
0.000430
0.000450
0.000445
0.000472
0.000450
0.000460
0.000457
0.000462
0.000465
0.000457
0.000440
0.000472
0.000457
0.000437
0.000442
0.000467
0.000422
0.000437
0.000445
0.000450
0.000445
0.000460
0.000422
0.000435
0.000440
0.000460
0.000420
0.000470
0.000442
0.000452
0.000442
0.000460
0.000480
0.000455
0.000450
0.000490
0.000452
0.000457
0.000445
0.000447
0.000430
0.000480
0.000452
0.000447
0.000472
0.000462
0.000457
0.000485
0.000440
0.000457
0.000432
0.000432
0.000450
0.000415
0.000417
0.000460
0.000437
0.000450
0.000450
0.000480
0.000435
0.000477
0.000480
0.000452
0.000452
0.000472
0.000440
0.000470
0.000452
0.000450
0.000467
0.000502
0.000450
0.000442
0.000432
0.000472
0.000447
0.000442
0.000457
0.000457
0.000405
0.000430
0.000450
0.000445
0.000427
0.000442
0.000430
0.000465
0.000425
0.000435
0.000415
0.000420
0.000445
0.000420
0.000437
0.000480
0.000460
0.000442
0.000477
0.000490
0.000420
0.000455
0.000490
0.000452
0.000452
0.000465
0.000430
0.000472
0.000427
0.000452
0.000425
0.000452
0.000442
0.000475
0.000442
0.000487
0.000460
0.000442
0.000470
0.000472
0.000432
0.000467
0.000457
0.000432
0.000445
0.000467
0.000405
0.000450
0.000410
0.000460
0.000417
0.000440
0.000430
0.000410
0.000435
0.000455
0.000440
0.000455
0.000465
0.000477
0.000427
0.000482
0.000460
0.000470
0.000442
0.000460
0.000447
0.000472
0.000442
0.000460
0.000427
0.000447
0.000430
0.000452
0.000437
0.000490
0.000472
0.000480
0.000477
0.000502
0.000467
0.000487
0.000467
0.000472
0.000435
0.000440
0.000425
0.000452
0.000425
0.000450
0.000432
0.000447
0.000455
0.000427
0.000407
0.000465
0.000417
0.000422
0.000440
0.000452
0.000445
0.000477
0.000490
0.000492
0.000457
0.000480
0.000460
0.000470
0.000457
0.000465
0.000422
0.000480
0.000465
0.000475
0.000440
0.000475
0.000427
0.000452
0.000465
0.000492
0.000450
0.000467
0.000470
0.000495
0.000445
0.000522
0.000472
0.000470
0.000460
0.000475
0.000435
0.000452
0.000435
0.000415
0.000420
0.000455
0.000432
0.000445
0.000457
0.000482
0.000442
0.000462
0.000472
0.000470
0.000460
0.000457
0.000455
0.000462
0.000477
0.000475
0.000422
0.000465
0.000450
0.000462
0.000442
0.000457
0.000442
0.000442
0.000460
0.000495
0.000437
0.000470
0.000460
0.000432
0.000430
0.000462
0.000437
0.000435
0.000457
0.000467
0.000430
0.000450
0.000427
0.000465
0.000425
0.000457
0.000455
0.000427
0.000445
0.000470
0.000407
0.000440
0.000435
0.000447
0.000422
0.000445
0.000452
0.000440
0.000437
0.000482
0.000450
0.000435
0.000452
0.000450
0.000427
0.000477
0.000452
0.000437
0.000442
0.000462
0.000435
0.000440
0.000450
0.000447
0.000432
0.000467
0.000470
0.000472
0.000470
0.000475
0.000425
0.000467
0.000457
0.000447
0.000427
0.000487
0.000472
0.000432
0.000440
0.000490
0.000417
0.000425
0.000430
0.000452
0.000427
0.000455
0.000452
0.000452
0.000445
0.000442
0.000427
0.000472
0.000435
0.000470
0.000430
0.000492
0.000470
0.000447
0.000460
0.000497
0.000462
0.000440
0.000442
0.000485
0.000422
0.000455
0.000435
0.000450
0.000460
0.000452
0.000432
0.000457
0.000460
0.000460
0.000445
0.000507
0.000472
0.000465
0.000467
0.000505
0.000465
0.000475
0.000445
0.000470
0.000447
0.000465
0.000445
0.000457
0.000435
0.000450
0.000422
0.000447
0.000457
0.000460
0.000442
0.000497
0.000452
0.000450
0.000500
0.000495
0.000490
0.000495
0.000490
0.000505
0.000452
0.000480
0.000447
0.000445
0.000412
0.000417
0.000422
0.000470
0.000435
0.000440
0.000432
0.000437
0.000437
0.000450
0.000460
0.000482
0.000437
0.000460
0.000455
0.000467
0.000427
0.000455
0.000435
0.000470
0.000440
0.000465
0.000445
0.000465
0.000450
0.000457
0.000430
0.000462
0.000437
0.000430
0.000447
0.000465
0.000452
0.000455
0.000457
0.000437
0.000425
0.000467
0.000462
0.000467
0.000432
0.000477
0.000452
0.000462
0.000460
0.000467
0.000432
0.000472
0.000455
0.000445
0.000445
0.000505
0.000455
0.000470
0.000490
0.000475
0.000442
0.000470
0.000465
0.000467
0.000442
0.000470
0.000442
0.000455
0.000455
0.000460
0.000435
0.000475
0.000462
0.000427
0.000455
0.000470
0.000440
0.000477
0.000467
0.000472
0.000455
0.000457
0.000442
0.000482
0.000447
0.000462
0.000462
0.000460
0.000457
0.000460
0.000422
0.000475
0.000462
0.000460
0.000450
0.000482
0.000447
0.000450
0.000450
0.000460
0.000440
0.000472
0.000452
0.000465
0.000455
0.000462
0.000460
0.000457
0.000442
0.000452
0.000480
0.000487
0.000450
0.000475
0.000465
0.000480
0.000425
0.000455
0.000452
0.000457
0.000442
0.000452
0.000457
0.000450
0.000440
0.000467
0.000470
0.000480
0.000460
0.000475
0.000452
0.000502
0.000465
0.000470
0.000467
0.000500
0.000477
0.000460
0.000467
0.000450
0.000432
0.000467
0.000460
0.000450
0.000470
0.000460
0.000450
0.000445
0.000437
0.000447
0.000440
0.000477
0.000440
0.000445
0.000447
0.000460
0.000450
0.000450
0.000465
0.000470
0.000447
0.000452
0.000445
0.000475
0.000447
0.000462
0.000440
0.000460
0.000430
0.000450
0.000450
0.000462
0.000460
0.000482
0.000472
0.000475
0.000452
0.000485
0.000485
0.000462
0.000472
0.000482
0.000455
0.000450
0.000422
0.000442
0.000415
0.000457
0.000430
0.000465
0.000467
0.000465
0.000447
0.000485
0.000440
0.000445
0.000402
0.000452
0.000465
0.000475
0.000457
0.000482
0.000452
0.000472
0.000460
0.000472
0.000485
0.000475
0.000467
0.000480
0.000407
0.000452
0.000445
0.000430
0.000432
0.000482
0.000442
0.000472
0.000477
0.000490
0.000440
0.000465
0.000470
0.000455
0.000475
0.000457
0.000440
0.000467
0.000432
0.000457
0.000422
0.000427
0.000432
0.000455
0.000462
0.000475
0.000450
0.000470
0.000487
0.000502
0.000460
0.000510
0.000492
0.000500
0.000470
0.000455
0.000440
0.000462
0.000452
0.000452
0.000460
0.000472
0.000450
0.000452
0.000440
0.000482
0.000450
0.000465
0.000430
0.000455
0.000445
0.000452
0.000425
0.000460
0.000420
0.000442
0.000440
0.000435
0.000430
0.000455
0.000440
0.000465
0.000460
0.000475
0.000475
0.000485
0.000447
0.000457
0.000410
0.000467
0.000437
0.000447
0.000442
0.000465
0.000437
0.000465
0.000487
0.000482
0.000450
0.000467
0.000470
0.000480
0.000445
0.000450
0.000447
0.000440
0.000427
0.000452
0.000465
0.000440
0.000455
0.000460
0.000432
0.000480
0.000462
0.000465
0.000450
0.000495
0.000462
0.000477
0.000447
0.000445
0.000437
0.000425
0.000437
0.000440
0.000435
0.000452
0.000460
0.000457
0.000447
0.000465
0.000432
0.000472
0.000447
0.000455
0.000450
0.000472
0.000457
0.000445
0.000462
0.000472
0.000467
0.000462
0.000462
0.000467
0.000427
0.000462
0.000457
0.000467
0.000447
0.000465
0.000445
0.000482
0.000445
0.000472
0.000455
0.000480
0.000467
0.000480
0.000480
0.000485
0.000447
0.000480
0.000462
0.000490
0.000432
0.000465
0.000442
0.000457
0.000435
0.000455
0.000427
0.000452
0.000450
0.000465
0.000440
0.000445
0.000480
0.000470
0.000427
0.000447
0.000440
0.000430
0.000450
0.000485
0.000447
0.000465
0.000467
0.000480
0.000452
0.000450
0.000445
0.000440
0.000427
0.000482
0.000450
0.000435
0.000450
0.000455
0.000455
0.000462
0.000470
0.000462
0.000472
0.000457
0.000447
0.000465
0.000430
0.000470
0.000445
0.000475
0.000450
0.000487
0.000440
0.000445
0.000450
0.000475
0.000470
0.000475
0.000460
0.000470
0.000445
0.000455
0.000445
0.000460
0.000452
0.000455
0.000475
0.000465
0.000410
0.000460
0.000450
0.000462
0.000467
0.000445
0.000457
0.000472
0.000455
0.000455
0.000440
0.000452
0.000432
0.000427
0.000440
0.000445
0.000437
0.000460
0.000457
0.000467
0.000435
0.000477
0.000447
0.000472
0.000477
0.000472
0.000437
0.000482
0.000427
0.000420
0.000402
0.000440
0.000412
0.000422
0.000422
0.000445
0.000430
0.000442
0.000482
0.000485
0.000445
0.000492
0.000472
0.000480
0.000485
0.000475
0.000480
0.000482
0.000465
0.000447
0.000442
0.000460
0.000425
0.000430
0.000442
0.000467
0.000430
0.000450
0.000477
0.000455
0.000432
0.000507
0.000450
0.000470
0.000465
0.000472
0.000452
0.000490
0.000450
0.000485
0.000452
0.000442
0.000425
0.000420
0.000430
0.000455
0.000400
0.000442
0.000465
0.000437
0.000405
0.000465
0.000425
0.000447
0.000477
0.000452
0.000455
0.000482
0.000470
0.000475
0.000450
0.000475
0.000455
0.000430
0.000462
0.000462
0.000415
0.000445
0.000477
0.000485
0.000452
0.000477
0.000455
0.000447
0.000440
0.000460
0.000427
0.000447
0.000445
0.000435
0.000432
0.000462
0.000422
0.000450
0.000437
0.000452
0.000442
0.000462
0.000462
0.000455
0.000427
0.000462
0.000455
0.000457
0.000440
0.000457
0.000447
0.000485
0.000467
0.000465
0.000452
0.000487
0.000460
0.000470
0.000472
0.000495
0.000462
0.000482
0.000440
0.000460
0.000437
0.000460
0.000470
0.000455
0.000485
0.000482
0.000432
0.000455
0.000472
0.000457
0.000420
0.000485
0.000457
0.000462
0.000450
0.000465
0.000447
0.000480
0.000432
0.000477
0.000445
0.000482
0.000472
0.000452
0.000462
0.000485
0.000432
0.000442
0.000455
0.000467
0.000447
0.000485
0.000462
0.000447
0.000450
0.000472
0.000425
0.000455
0.000470
0.000490
0.000465
0.000490
0.000467
0.000447
0.000460
0.000502
0.000450
0.000487
0.000475
0.000472
0.000450
0.000472
0.000455
0.000467
0.000445
0.000502
0.000457
0.000430
0.000455
0.000495
0.000442
0.000477
0.000482
0.000475
0.000455
0.000492
0.000450
0.000480
0.000450
0.000460
0.000447
0.000475
0.000462
0.000460
0.000472
0.000500
0.000462
0.000442
0.000465
0.000487
0.000420
0.000455
0.000462
0.000457
0.000460
0.000465
0.000427
0.000450
0.000455
0.000465
0.000455
0.000460
0.000462
0.000447
0.000445
0.000500
0.000425
0.000442
0.000472
0.000485
0.000450
0.000482
0.000445
0.000452
0.000455
0.000475
0.000477
0.000470
0.000462
0.000455
0.000430
0.000480
0.000467
0.000465
0.000450
0.000472
0.000440
0.000462
0.000447
0.000452
0.000440
0.000470
0.000487
0.000487
0.000437
0.000510
0.000475
0.000455
0.000485
0.000472
0.000465
0.000515
0.000472
0.000482
0.000452
0.000455
0.000435
0.000442
0.000465
0.000512
0.000432
0.000477
0.000475
0.000475
0.000475
0.000480
0.000465
0.000460
0.000465
0.000455
0.000422
0.000460
0.000402
0.000440
0.000437
0.000465
0.000415
0.000465
0.000437
0.000480
0.000435
0.000515
0.000480
0.000470
0.000455
0.000502
0.000432
0.000477
0.000477
0.000472
0.000477
0.000495
0.000480
0.000472
0.000435
0.000475
0.000430
0.000437
0.000470
0.000480
0.000437
0.000500
0.000472
0.000465
0.000470
0.000475
0.000482
0.000477
0.000485
0.000480
0.000430
0.000495
0.000467
0.000445
0.000447
0.000490
0.000462
0.000442
0.000465
0.000497
0.000417
0.000475
0.000470
0.000447
0.000475
0.000482
0.000415
0.000477
0.000475
0.000450
0.000432
0.000472
0.000462
0.000472
0.000427
0.000485
0.000455
0.000445
0.000472
0.000490
0.000427
0.000465
0.000467
0.000447
0.000445
0.000455
0.000427
0.000447
0.000432
0.000445
0.000397
0.000452
0.000462
0.000435
0.000427
0.000482
0.000427
0.000427
0.000462
0.000490
0.000417
0.000482
0.000485
0.000495
0.000447
0.000477
0.000470
0.000475
0.000452
0.000470
0.000450
0.000475
0.000455
0.000460
0.000447
0.000512
0.000440
0.000442
0.000472
0.000495
0.000427
0.000477
0.000500
0.000480
0.000450
0.000500
0.000472
0.000447
0.000450
0.000432
0.000412
0.000442
0.000432
0.000450
0.000425
0.000455
0.000432
0.000450
0.000480
0.000482
0.000455
0.000472
0.000500
0.000470
0.000455
0.000505
0.000442
0.000475
0.000447
0.000477
0.000427
0.000460
0.000460
0.000462
0.000462
0.000457
0.000457
0.000445
0.000430
0.000475
0.000430
0.000472
0.000472
0.000470
0.000450
0.000492
0.000470
0.000485
0.000485
0.000510
0.000455
0.000475
0.000485
0.000460
t0(sec) = 0.000000E+0
dt(sec) = 4.000000E-10
F4:INSP "
DESCRIPTOR_NAME    : WAVEDESC           
TEMPLATE_NAME      : LECROY_2_3         
COMM_TYPE          : word               
COMM_ORDER         : HIFIRST            
WAVE_DESCRIPTOR    : 346                
USER_TEXT          : 0                  
RES_DESC1          : 0                  
TRIGTIME_ARRAY     : 0                  
RIS_TIME_ARRAY     : 0                  
RES_ARRAY1         : 0                  
WAVE_ARRAY_1       : 9932               
WAVE_ARRAY_2       : 0                  
RES_ARRAY2         : 0                  
RES_ARRAY3         : 0                  
INSTRUMENT_NAME    : LECROYHDO6104      
INSTRUMENT_NUMBER  : 6308               
TRACE_LABEL        :                    
RESERVED1          : 4966               
RESERVED2          : 0                  
WAVE_ARRAY_COUNT   : 4966               
PNTS_PER_SCREEN    : 5000               
FIRST_VALID_PNT    : 0                  
LAST_VALID_PNT     : 4965               
FIRST_POINT        : 0                  
SPARSING_FACTOR    : 1                  
SEGMENT_INDEX      : 0                  
SUBARRAY_COUNT     : 1                  
SWEEPS_PER_ACQ     : 200                
POINTS_PER_PAIR    : 0                  
PAIR_OFFSET        : 0                  
VERTICAL_GAIN      : 2.6238e-006        
VERTICAL_OFFSET    : 6.8001e-002        
MAX_VALUE          : 2.7366e+004        
MIN_VALUE          : 1.2377e+004        
NOMINAL_BITS       : 16                 
NOM_SUBARRAY_COUNT : 1                  
HORIZ_INTERVAL     : 4.0000e-010        
HORIZ_OFFSET       : -2.00000000e-007   
PIXEL_OFFSET       : -2.14000000e-007   
VERTUNIT           : Unit Name = V
HORUNIT            : Unit Name = S
HORIZ_UNCERTAINTY  : 1.0000e-012        
TRIGGER_TIME       : Date = APR 17, 2024, Time = 19:19:54.444956283
ACQ_DURATION       : 9.9988e+000        
RECORD_TYPE        : single_sweep       
PROCESSING_DONE    : no_processing      
RESERVED5          : 0                  
RIS_SWEEPS         : 1                  
TIMEBASE           : 200_ns/div         
VERT_COUPLING      : DC_50_Ohms         
PROBE_ATT          : 1.0000e+000        
FIXED_VERT_GAIN    : 5_mV/div           
BANDWIDTH_LIMIT    : off                
VERTICAL_VERNIER   : 1.0000e+000        
ACQ_VERT_OFFSET    : 0.0000e+000        
WAVE_SOURCE        : UNKNOWN            
"
0.000679
0.000672
0.000635
0.000645
0.000698
0.000664
0.000661
0.000666
0.000677
0.000640
0.000677
0.000698
0.000700
0.000658
0.000635
0.000609
0.000651
0.000651
0.000640
0.000638
0.000664
0.000666
0.000645
0.000666
0.000672
0.000658
0.000651
0.000669
0.000653
0.000632
0.000661
0.000682
0.000661
0.000656
0.000690
0.000658
0.000677
0.000666
0.000695
0.000690
0.000687
0.000698
0.000632
0.000601
0.000656
0.000648
0.000635
0.000674
0.000672
0.000677
0.000690
0.000658
0.000698
0.000658
0.000653
0.000672
0.000632
0.000609
0.000677
0.000661
0.000677
0.000677
0.000672
0.000679
0.000672
0.000643
0.000651
0.000651
0.000669
0.000672
0.000690
0.000685
0.000687
0.000674
0.000677
0.000693
0.000651
0.000653
0.000653
0.000661
0.000669
0.000619
0.000554
0.000530
0.000580
0.000638
0.000627
0.000622
0.000582
0.000603
0.000658
0.000666
0.000685
0.000656
0.000690
0.000685
0.000698
0.000706
0.000711
0.000651
0.000651
0.000643
0.000666
0.000685
0.000695
0.000716
0.000648
0.000635
0.000648
0.000643
0.000593
0.000585
0.000603
0.000603
0.000664
0.000674
0.000656
0.000703
0.000706
0.000698
0.000664
0.000661
0.000658
0.000656
0.000661
0.000661
0.000695
0.000666
0.000661
0.000640
0.000606
0.000614
0.000661
0.000677
0.000682
0.000708
0.000693
0.000690
0.000658
0.000645
0.000656
0.000638
0.000622
0.000651
0.000672
0.000685
0.000658
0.000677
0.000674
0.000674
0.000666
0.000664
0.000690
0.000679
0.000651
0.000672
0.000672
0.000638
0.000674
0.000677
0.000695
0.000674
0.000690
0.000656
0.000640
0.000679
0.000669
0.000672
0.000640
0.000601
0.000630
0.000656
0.000666
0.000674
0.000682
0.000682
0.000672
0.000703
0.000687
0.000664
0.000677
0.000687
0.000664
0.000643
0.000656
0.000643
0.000651
0.000651
0.000677
0.000672
0.000653
0.000638
0.000619
0.000590
0.000588
0.000606
0.000603
0.000617
0.000656
0.000674
0.000674
0.000672
0.000685
0.000666
0.000679
0.000698
0.000648
0.000609
0.000638
0.000656
0.000648
0.000635
0.000640
0.000640
0.000664
0.000664
0.000687
0.000677
0.000651
0.000687
0.000685
0.000672
0.000693
0.000635
0.000651
0.000643
0.000651
0.000666
0.000682
0.000698
0.000679
0.000695
0.000703
0.000674
0.000672
0.000664
0.000658
0.000672
0.000690
0.000677
0.000666
0.000672
0.000669
0.000643
0.000611
0.000603
0.000624
0.000669
0.000677
0.000661
0.000672
0.000645
0.000627
0.000643
0.000669
0.000664
0.000658
0.000706
0.000682
0.000640
0.000653
0.000658
0.000598
0.000590
0.000601
0.000679
0.000679
0.000661
0.000685
0.000656
0.000658
0.000687
0.000690
0.000698
0.000679
0.000719
0.000700
0.000666
0.000669
0.000640
0.000635
0.000645
0.000643
0.000630
0.000661
0.000682
0.000682
0.000672
0.000672
0.000687
0.000661
0.000674
0.000677
0.000682
0.000658
0.000664
0.000679
0.000664
0.000698
0.000679
0.000666
0.000674
0.000677
0.000687
0.000674
0.000677
0.000693
0.000666
0.000703
0.000685
0.000669
0.000669
0.000661
0.000638
0.000588
0.000569
0.000635
0.000653
0.000690
0.000643
0.000640
0.000682
0.000648
0.000640
0.000624
0.000624
0.000632
0.000679
0.000677
0.000703
0.000687
0.000698
0.000677
0.000643
0.000666
0.000656
0.000651
0.000645
0.000661
0.000677
0.000674
0.000653
0.000714
0.000658
0.000643
0.000643
0.000632
0.000611
0.000632
0.000664
0.000669
0.000695
0.000674
0.000674
0.000635
0.000645
0.000656
0.000643
0.000687
0.000664
0.000653
0.000677
0.000664
0.000690
0.000669
0.000653
0.000693
0.000682
0.000651
0.000669
0.000687
0.000679
0.000685
0.000679
0.000695
0.000695
0.000679
0.000695
0.000685
0.000703
0.000693
0.000690
0.000687
0.000690
0.000700
0.000672
0.000669
0.000609
0.000551
0.000517
0.000577
0.000603
0.000627
0.000632
0.000653
0.000661
0.000674
0.000672
0.000695
0.000677
0.000685
0.000698
0.000690
0.000672
0.000687
0.000685
0.000664
0.000666
0.000700
0.000695
0.000658
0.000706
0.000687
0.000672
0.000682
0.000706
0.000679
0.000656
0.000677
0.000703
0.000706
0.000666
0.000658
0.000627
0.000588
0.000590
0.000603
0.000614
0.000653
0.000714
0.000732
0.000740
0.000742
0.000674
0.000661
0.000643
0.000661
0.000635
0.000622
0.000590
0.000556
0.000593
0.000606
0.000645
0.000664
0.000703
0.000735
0.000708
0.000729
0.000698
0.000690
0.000674
0.000721
0.000693
0.000651
0.000653
0.000643
0.000598
0.000585
0.000606
0.000708
0.000724
0.000750
0.000700
0.000569
0.000462
0.000501
0.000559
0.000567
0.000540
0.000569
0.000504
0.000422
0.000525
0.000648
0.000729
0.000795
0.000853
0.000805
0.000630
0.000519
0.000509
0.000504
0.000480
0.000501
0.000538
0.000548
0.000509
0.000598
0.000674
0.000779
0.000874
0.000981
0.000979
0.000824
0.000690
0.000614
0.000506
0.000435
0.000462
0.000409
0.000401
0.000373
0.000380
0.000462
0.000585
0.000808
0.000921
0.000994
0.000897
0.000842
0.000821
0.000703
0.000614
0.000635
0.000603
0.000485
0.000346
0.000273
0.000317
0.000352
0.000554
0.000847
0.001015
0.001094
0.001015
0.000950
0.000845
0.000774
0.000803
0.000784
0.000674
0.000575
0.000428
0.000359
0.000365
0.000462
0.000609
0.000666
0.000700
0.000763
0.000737
0.000782
0.000863
0.000913
0.000931
0.000908
0.000784
0.000582
0.000386
0.000270
0.000181
-0.000084
-0.000449
-0.000795
-0.001178
-0.001842
-0.002836
-0.003595
-0.004122
-0.004851
-0.005699
-0.006221
-0.006948
-0.007790
-0.008506
-0.009065
-0.009262
-0.009031
-0.008541
-0.008150
-0.007798
-0.007326
-0.006840
-0.006518
-0.006182
-0.005835
-0.005946
-0.006316
-0.006644
-0.006793
-0.006825
-0.006533
-0.006003
-0.005552
-0.005368
-0.005156
-0.004804
-0.004920
-0.005523
-0.005744
-0.005652
-0.005683
-0.005353
-0.004736
-0.004799
-0.005017
-0.004366
-0.003558
-0.003600
-0.004009
-0.004203
-0.004445
-0.004749
-0.004634
-0.004075
-0.003760
-0.003647
-0.003120
-0.002653
-0.002716
-0.002970
-0.003096
-0.003353
-0.003773
-0.003949
-0.003647
-0.003516
-0.003576
-0.003243
-0.003025
-0.003180
-0.003086
-0.002611
-0.002540
-0.002763
-0.002587
-0.002170
-0.002170
-0.002293
-0.002083
-0.001915
-0.002230
-0.002403
-0.002288
-0.002461
-0.002991
-0.003204
-0.002797
-0.002571
-0.002427
-0.002096
-0.001897
-0.001997
-0.002026
-0.001976
-0.002325
-0.002731
-0.002577
-0.002356
-0.002432
-0.002196
-0.001703
-0.001818
-0.002199
-0.002278
-0.002401
-0.002850
-0.002954
-0.002477
-0.002096
-0.002317
-0.002485
-0.002314
-0.002060
-0.002047
-0.002304
-0.002493
-0.002343
-0.002070
-0.001881
-0.001805
-0.001713
-0.001727
-0.001753
-0.001671
-0.001619
-0.001753
-0.001976
-0.002225
-0.002317
-0.002186
-0.001944
-0.001674
-0.001601
-0.001653
-0.001748
-0.001860
-0.001918
-0.001931
-0.002049
-0.002149
-0.001997
-0.001551
-0.001446
-0.001742
-0.001774
-0.001761
-0.002039
-0.002217
-0.002028
-0.001918
-0.002036
-0.001978
-0.001769
-0.001931
-0.002136
-0.002036
-0.001999
-0.002175
-0.002044
-0.001813
-0.001727
-0.001522
-0.001231
-0.001338
-0.001637
-0.001556
-0.001543
-0.001829
-0.001818
-0.001469
-0.001312
-0.001490
-0.001868
-0.002031
-0.001873
-0.001774
-0.001978
-0.002220
-0.002115
-0.001724
-0.001548
-0.001624
-0.001401
-0.001157
-0.001246
-0.001336
-0.001060
-0.000895
-0.001010
-0.001170
-0.001047
-0.001094
-0.001246
-0.001170
-0.001160
-0.001343
-0.001425
-0.001357
-0.001364
-0.001506
-0.001616
-0.001790
-0.001818
-0.001608
-0.001378
-0.001527
-0.001692
-0.001401
-0.001134
-0.001252
-0.001233
-0.000942
-0.000850
-0.000979
-0.001218
-0.001462
-0.001464
-0.001328
-0.001286
-0.001490
-0.001650
-0.001525
-0.001451
-0.001480
-0.001241
-0.001204
-0.001483
-0.001532
-0.001477
-0.001498
-0.001380
-0.001123
-0.000853
-0.000824
-0.001021
-0.001065
-0.000987
-0.001015
-0.001034
-0.001076
-0.001210
-0.001220
-0.001149
-0.001084
-0.001002
-0.001076
-0.001212
-0.001286
-0.001139
-0.000916
-0.000976
-0.001254
-0.001236
-0.001060
-0.001076
-0.001168
-0.001047
-0.000897
-0.001005
-0.001155
-0.001029
-0.000924
-0.001065
-0.001036
-0.000761
-0.000580
-0.000541
-0.000485
-0.000462
-0.000672
-0.000853
-0.000813
-0.000806
-0.000876
-0.000908
-0.000992
-0.001181
-0.001178
-0.001002
-0.000932
-0.001015
-0.001034
-0.001107
-0.001257
-0.001168
-0.000947
-0.000976
-0.001286
-0.001441
-0.001204
-0.001026
-0.001044
-0.000994
-0.000866
-0.000905
-0.001081
-0.001021
-0.000979
-0.001036
-0.000924
-0.000606
-0.000501
-0.000735
-0.001039
-0.001315
-0.001519
-0.001514
-0.001435
-0.001236
-0.000890
-0.000430
-0.000228
-0.000247
-0.000291
-0.000339
-0.000527
-0.000701
-0.000821
-0.000953
-0.000989
-0.000966
-0.001050
-0.001260
-0.001435
-0.001275
-0.000992
-0.000779
-0.000706
-0.000672
-0.000643
-0.000640
-0.000643
-0.000701
-0.000929
-0.000994
-0.000966
-0.001113
-0.001430
-0.001338
-0.001050
-0.000942
-0.001092
-0.001202
-0.001186
-0.001178
-0.001270
-0.001139
-0.000992
-0.001105
-0.001270
-0.001026
-0.000596
-0.000630
-0.000897
-0.000984
-0.001044
-0.001252
-0.001265
-0.001034
-0.000800
-0.000795
-0.000806
-0.000625
-0.000449
-0.000512
-0.000638
-0.000661
-0.000554
-0.000483
-0.000643
-0.000693
-0.000690
-0.000682
-0.000709
-0.000750
-0.000688
-0.000695
-0.000674
-0.000543
-0.000438
-0.000475
-0.000381
-0.000249
-0.000291
-0.000325
-0.000436
-0.000643
-0.000821
-0.000829
-0.000792
-0.000750
-0.000724
-0.000499
-0.000367
-0.000541
-0.000609
-0.000409
-0.000449
-0.001052
-0.001498
-0.001283
-0.000992
-0.001139
-0.001202
-0.000853
-0.000703
-0.000861
-0.000748
-0.000627
-0.000918
-0.001155
-0.001089
-0.000903
-0.000824
-0.000551
-0.000207
-0.000357
-0.000646
-0.000748
-0.000722
-0.000806
-0.000876
-0.000897
-0.000929
-0.000785
-0.000732
-0.000829
-0.000750
-0.000464
-0.000307
-0.000428
-0.000559
-0.000499
-0.000399
-0.000478
-0.000656
-0.000672
-0.000627
-0.000617
-0.000627
-0.000743
-0.000905
-0.001055
-0.000968
-0.000651
-0.000590
-0.000719
-0.000698
-0.000543
-0.000464
-0.000409
-0.000381
-0.000344
-0.000423
-0.000559
-0.000674
-0.000630
-0.000520
-0.000459
-0.000480
-0.000430
-0.000394
-0.000417
-0.000268
-0.000060
-0.000218
-0.000478
-0.000485
-0.000354
-0.000357
-0.000470
-0.000512
-0.000388
-0.000273
-0.000325
-0.000483
-0.000517
-0.000496
-0.000459
-0.000478
-0.000472
-0.000449
-0.000433
-0.000598
-0.000617
-0.000485
-0.000512
-0.000667
-0.000601
-0.000378
-0.000304
-0.000318
-0.000228
-0.000270
-0.000360
-0.000346
-0.000262
-0.000352
-0.000367
-0.000304
-0.000315
-0.000446
-0.000590
-0.000803
-0.000929
-0.000690
-0.000412
-0.000517
-0.000761
-0.000656
-0.000436
-0.000475
-0.000606
-0.000630
-0.000569
-0.000727
-0.000871
-0.000664
-0.000512
-0.000604
-0.000630
-0.000583
-0.000499
-0.000509
-0.000459
-0.000402
-0.000504
-0.000614
-0.000619
-0.000525
-0.000302
-0.000213
-0.000247
-0.000302
-0.000281
-0.000365
-0.000449
-0.000396
-0.000548
-0.000743
-0.000541
-0.000294
-0.000213
-0.000089
0.000047
-0.000066
-0.000375
-0.000394
-0.000260
-0.000339
-0.000362
-0.000286
-0.000365
-0.000588
-0.000496
-0.000367
-0.000420
-0.000593
-0.000640
-0.000590
-0.000530
-0.000501
-0.000459
-0.000478
-0.000593
-0.000548
-0.000362
-0.000344
-0.000428
-0.000470
-0.000315
-0.000323
-0.000467
-0.000525
-0.000493
-0.000554
-0.000593
-0.000554
-0.000535
-0.000590
-0.000625
-0.000530
-0.000457
-0.000425
-0.000362
-0.000281
-0.000297
-0.000307
-0.000318
-0.000360
-0.000383
-0.000339
-0.000289
-0.000302
-0.000396
-0.000619
-0.000703
-0.000698
-0.000706
-0.000748
-0.000785
-0.000926
-0.000987
-0.000779
-0.000611
-0.000569
-0.000415
-0.000202
-0.000113
-0.000118
-0.000152
-0.000155
-0.000194
-0.000247
-0.000423
-0.000622
-0.000667
-0.000787
-0.000761
-0.000588
-0.000388
-0.000346
-0.000383
-0.000370
-0.000255
-0.000202
-0.000110
-0.000100
-0.000283
-0.000496
-0.000538
-0.000520
-0.000538
-0.000525
-0.000378
-0.000155
-0.000105
-0.000158
-0.000236
-0.000336
-0.000312
-0.000213
-0.000339
-0.000423
-0.000378
-0.000373
-0.000396
-0.000415
-0.000548
-0.000606
-0.000517
-0.000415
-0.000336
-0.000210
-0.000034
0.000068
-0.000144
-0.000312
-0.000210
-0.000197
-0.000336
-0.000299
-0.000213
-0.000378
-0.000530
-0.000514
-0.000525
-0.000604
-0.000559
-0.000344
-0.000110
-0.000016
0.000110
0.000170
0.000115
0.000058
-0.000018
-0.000147
-0.000139
-0.000131
-0.000241
-0.000278
-0.000199
-0.000257
-0.000346
-0.000244
-0.000108
-0.000255
-0.000475
-0.000562
-0.000601
-0.000703
-0.000635
-0.000454
-0.000278
-0.000325
-0.000459
-0.000583
-0.000504
-0.000320
-0.000312
-0.000449
-0.000436
-0.000247
-0.000074
-0.000058
-0.000102
-0.000060
-0.000011
-0.000123
-0.000084
-0.000018
-0.000116
-0.000226
-0.000339
-0.000320
-0.000228
-0.000181
-0.000121
-0.000081
-0.000189
-0.000333
-0.000331
-0.000281
-0.000294
-0.000483
-0.000488
-0.000207
0.000037
-0.000060
-0.000178
-0.000176
-0.000160
-0.000365
-0.000527
-0.000472
-0.000349
-0.000273
-0.000163
-0.000116
-0.000160
-0.000362
-0.000538
-0.000530
-0.000360
-0.000273
-0.000360
-0.000420
-0.000226
-0.000189
-0.000349
-0.000457
-0.000270
-0.000202
-0.000339
-0.000464
-0.000443
-0.000268
-0.000205
-0.000344
-0.000443
-0.000451
-0.000535
-0.000499
-0.000349
-0.000283
-0.000249
-0.000110
-0.000005
-0.000152
-0.000386
-0.000472
-0.000260
-0.000220
-0.000260
-0.000134
-0.000118
-0.000265
-0.000362
-0.000352
-0.000328
-0.000241
-0.000310
-0.000480
-0.000522
-0.000328
-0.000404
-0.000530
-0.000310
-0.000066
-0.000102
-0.000139
0.000092
0.000157
-0.000024
-0.000113
-0.000076
-0.000213
-0.000218
-0.000100
-0.000118
-0.000283
-0.000247
-0.000063
-0.000008
-0.000186
-0.000247
-0.000105
-0.000060
-0.000121
-0.000186
-0.000171
-0.000168
-0.000197
-0.000189
-0.000152
-0.000134
-0.000139
-0.000079
-0.000165
-0.000281
-0.000281
-0.000134
-0.000100
-0.000163
-0.000226
-0.000346
-0.000420
-0.000249
-0.000165
-0.000373
-0.000674
-0.000664
-0.000538
-0.000527
-0.000601
-0.000409
-0.000123
-0.000108
-0.000158
-0.000110
-0.000008
-0.000037
0.000021
0.000031
-0.000110
-0.000226
-0.000137
-0.000005
-0.000144
-0.000362
-0.000391
-0.000352
-0.000373
-0.000325
-0.000270
-0.000252
-0.000155
-0.000087
-0.000184
-0.000304
-0.000383
-0.000346
-0.000273
-0.000270
-0.000344
-0.000339
-0.000192
-0.000042
-0.000005
-0.000037
-0.000050
-0.000042
0.000031
0.000097
0.000042
-0.000160
-0.000142
-0.000024
-0.000066
-0.000113
-0.000113
-0.000165
-0.000173
-0.000139
-0.000194
-0.000349
-0.000278
-0.000220
-0.000428
-0.000483
-0.000147
-0.000003
-0.000108
-0.000113
0.000003
0.000008
0.000021
0.000039
-0.000063
-0.000365
-0.000478
-0.000333
-0.000194
-0.000210
-0.000150
-0.000071
-0.000024
0.000076
0.000105
0.000045
-0.000047
-0.000074
-0.000050
-0.000034
0.000084
0.000076
-0.000160
-0.000388
-0.000260
-0.000092
-0.000042
-0.000039
-0.000013
0.000029
0.000052
0.000097
0.000152
0.000155
0.000045
-0.000037
0.000003
-0.000071
-0.000262
-0.000315
-0.000202
-0.000021
0.000142
0.000281
0.000278
0.000212
0.000058
-0.000184
-0.000472
-0.000583
-0.000512
-0.000294
-0.000142
0.000026
0.000155
0.000226
0.000236
0.000233
0.000144
-0.000034
-0.000081
0.000029
-0.000102
-0.000286
-0.000268
-0.000095
-0.000074
-0.000000
0.000081
0.000050
-0.000058
-0.000000
0.000087
-0.000081
-0.000150
-0.000066
-0.000034
-0.000053
-0.000066
0.000050
0.000029
-0.000050
-0.000081
-0.000074
-0.000021
0.000110
0.000168
0.000178
0.000113
0.000089
0.000076
0.000037
0.000034
0.000050
-0.000055
-0.000095
-0.000087
0.000013
0.000060
0.000157
0.000163
0.000102
-0.000013
0.000037
0.000139
0.000110
0.000076
0.000052
0.000102
0.000128
0.000149
0.000176
0.000210
0.000218
0.000165
0.000152
0.000081
-0.000013
0.000081
0.000160
0.000042
-0.000079
-0.000142
-0.000084
-0.000084
-0.000178
-0.000273
-0.000499
-0.000646
-0.000391
-0.000192
-0.000239
-0.000199
-0.000066
-0.000079
-0.000060
0.000050
0.000016
-0.000097
-0.000037
0.000128
0.000089
-0.000173
-0.000207
-0.000037
-0.000026
-0.000184
-0.000215
-0.000110
-0.000087
-0.000084
0.000003
-0.000026
-0.000121
-0.000113
0.000047
0.000066
-0.000039
-0.000005
0.000063
-0.000037
-0.000037
-0.000005
0.000034
0.000087
0.000121
0.000105
0.000029
-0.000220
-0.000268
-0.000053
0.000163
0.000194
0.000178
0.000244
0.000218
0.000042
0.000039
0.000202
0.000184
0.000052
0.000060
0.000063
0.000066
0.000165
0.000228
-0.000021
-0.000407
-0.000509
-0.000304
-0.000192
-0.000205
-0.000116
0.000055
0.000031
0.000079
0.000191
0.000071
-0.000150
-0.000008
0.000186
0.000123
-0.000131
-0.000189
-0.000084
-0.000113
-0.000095
-0.000011
0.000034
0.000039
0.000126
0.000052
-0.000089
-0.000102
-0.000137
-0.000320
-0.000517
-0.000457
-0.000249
-0.000241
-0.000302
-0.000257
-0.000194
-0.000097
0.000110
0.000320
0.000244
0.000212
0.000328
0.000357
0.000218
0.000173
0.000176
0.000178
0.000131
0.000073
0.000118
-0.000032
-0.000197
-0.000100
0.000170
0.000244
0.000152
0.000228
0.000289
0.000147
0.000058
0.000134
0.000121
0.000005
0.000024
0.000100
0.000034
0.000073
0.000147
0.000100
-0.000105
-0.000092
0.000066
0.000100
-0.000016
-0.000055
-0.000123
-0.000129
-0.000074
0.000060
0.000079
-0.000110
-0.000095
0.000110
0.000160
-0.000016
0.000058
0.000202
0.000100
0.000052
0.000165
0.000228
0.000126
0.000094
0.000073
-0.000100
-0.000220
-0.000220
-0.000289
-0.000399
-0.000247
-0.000076
-0.000060
-0.000037
0.000026
0.000052
0.000081
0.000228
0.000373
0.000352
0.000228
0.000194
0.000197
0.000228
0.000189
0.000181
0.000215
0.000212
0.000100
0.000026
0.000105
0.000354
0.000323
0.000294
0.000433
0.000512
0.000451
0.000323
0.000281
0.000220
0.000118
0.000118
0.000218
0.000207
0.000092
0.000102
0.000205
0.000254
0.000168
-0.000084
-0.000223
-0.000218
-0.000071
0.000097
0.000003
-0.000074
0.000021
0.000157
0.000157
0.000155
0.000165
0.000063
-0.000165
-0.000202
-0.000050
0.000052
0.000047
0.000063
0.000052
-0.000050
-0.000045
0.000018
-0.000047
-0.000131
-0.000079
0.000034
0.000026
-0.000000
0.000039
0.000039
-0.000131
-0.000181
-0.000047
0.000013
-0.000129
-0.000220
-0.000142
0.000060
0.000170
0.000212
0.000194
0.000147
0.000165
0.000278
0.000215
0.000092
0.000121
-0.000003
-0.000071
0.000050
0.000163
0.000136
0.000147
0.000247
0.000144
-0.000058
0.000003
0.000118
-0.000186
-0.000407
-0.000291
-0.000131
-0.000032
0.000136
0.000252
0.000344
0.000310
0.000291
0.000186
0.000160
0.000312
0.000289
0.000029
-0.000024
0.000123
0.000121
-0.000013
0.000055
0.000207
0.000113
-0.000045
0.000037
0.000102
-0.000029
-0.000081
0.000105
0.000194
0.000144
0.000186
0.000157
-0.000121
-0.000244
-0.000147
-0.000032
-0.000108
-0.000037
0.000157
0.000102
-0.000039
-0.000005
0.000107
0.000039
0.000024
0.000223
0.000307
0.000257
0.000223
0.000231
0.000073
-0.000123
-0.000050
0.000123
0.000052
0.000073
0.000152
0.000163
-0.000003
-0.000189
-0.000095
-0.000042
-0.000223
-0.000171
-0.000018
-0.000024
0.000068
0.000317
0.000498
0.000456
0.000333
0.000194
-0.000034
-0.000137
0.000010
0.000157
0.000155
0.000223
0.000218
0.000181
0.000110
0.000134
0.000073
-0.000102
-0.000178
-0.000089
0.000037
0.000163
0.000304
0.000393
0.000359
0.000312
0.000278
0.000254
0.000231
0.000205
0.000228
0.000191
0.000139
0.000063
-0.000058
-0.000131
-0.000108
-0.000102
-0.000155
-0.000241
-0.000045
0.000215
0.000296
0.000286
0.000289
0.000252
0.000076
0.000021
0.000194
0.000241
0.000131
0.000139
0.000239
0.000134
-0.000081
-0.000021
0.000157
0.000152
0.000102
0.000223
0.000317
0.000218
0.000165
0.000273
0.000178
0.000089
0.000110
0.000126
0.000034
-0.000060
-0.000121
-0.000178
-0.000113
-0.000045
0.000076
0.000202
0.000278
0.000296
0.000244
0.000223
0.000283
0.000268
0.000289
0.000383
0.000388
0.000194
0.000076
0.000173
0.000173
0.000097
0.000115
0.000273
0.000286
0.000223
0.000236
0.000249
0.000071
-0.000060
-0.000032
0.000060
0.000126
0.000289
0.000443
0.000446
0.000357
0.000425
0.000414
0.000338
0.000260
0.000302
0.000312
0.000283
0.000299
0.000233
0.000142
0.000173
0.000212
0.000176
0.000094
0.000139
0.000176
0.000136
0.000149
0.000233
0.000249
0.000247
0.000317
0.000265
0.000126
0.000131
0.000176
0.000121
0.000157
0.000233
0.000212
0.000247
0.000262
0.000218
0.000152
0.000107
0.000052
0.000087
0.000115
0.000071
-0.000053
-0.000045
-0.000029
0.000037
0.000155
0.000286
0.000249
0.000144
0.000063
0.000178
0.000165
0.000039
0.000100
0.000283
0.000346
0.000283
0.000341
0.000438
0.000362
0.000194
0.000068
0.000050
0.000039
0.000068
0.000173
0.000241
0.000312
0.000325
0.000380
0.000443
0.000401
0.000244
0.000252
0.000359
0.000328
0.000354
0.000370
0.000331
0.000205
0.000191
0.000202
0.000152
0.000126
0.000249
0.000273
0.000089
0.000024
0.000231
0.000302
0.000199
0.000236
0.000435
0.000404
0.000262
0.000157
0.000107
0.000073
0.000107
0.000107
0.000084
0.000005
0.000058
0.000081
0.000178
0.000205
0.000094
0.000055
0.000165
0.000244
0.000087
0.000003
0.000144
0.000194
0.000126
0.000121
0.000265
0.000268
0.000165
0.000236
0.000281
0.000168
0.000163
0.000220
0.000147
0.000050
0.000163
0.000296
0.000257
0.000249
0.000236
0.000126
0.000089
0.000244
0.000378
0.000346
0.000352
0.000370
0.000244
0.000249
0.000373
0.000323
0.000223
0.000210
0.000291
0.000268
0.000244
0.000365
0.000378
0.000373
0.000396
0.000359
0.000315
0.000317
0.000312
0.000202
0.000115
0.000163
0.000247
0.000136
0.000115
0.000244
0.000315
0.000281
0.000333
0.000433
0.000425
0.000286
0.000260
0.000315
0.000239
0.000113
0.000134
0.000155
0.000197
0.000270
0.000205
0.000024
-0.000053
0.000031
0.000121
0.000055
0.000155
0.000302
0.000241
0.000189
0.000294
0.000304
0.000215
0.000152
0.000189
0.000178
0.000278
0.000378
0.000422
0.000422
0.000412
0.000375
0.000354
0.000420
0.000443
0.000320
0.000228
0.000252
0.000304
0.000304
0.000315
0.000281
0.000254
0.000310
0.000275
0.000094
-0.000008
0.000042
0.000110
0.000191
0.000236
0.000294
0.000207
0.000173
0.000226
0.000233
0.000205
0.000163
0.000186
0.000058
-0.000034
-0.000076
-0.000011
0.000144
0.000181
0.000100
0.000118
0.000147
0.000152
0.000136
0.000115
0.000087
-0.000000
0.000052
0.000205
0.000270
0.000296
0.000268
0.000344
0.000386
0.000404
0.000391
0.000435
0.000470
0.000438
0.000296
0.000228
0.000275
0.000354
0.000365
0.000365
0.000401
0.000386
0.000357
0.000299
0.000197
0.000155
0.000155
0.000191
0.000233
0.000186
0.000063
-0.000055
0.000045
0.000239
0.000346
0.000373
0.000380
0.000312
0.000149
0.000157
0.000270
0.000283
0.000270
0.000239
0.000173
0.000215
0.000312
0.000425
0.000367
0.000357
0.000396
0.000312
0.000220
0.000299
0.000365
0.000299
0.000302
0.000449
0.000512
0.000446
0.000401
0.000512
0.000443
0.000252
0.000163
0.000233
0.000257
0.000260
0.000260
0.000252
0.000184
0.000212
0.000241
0.000241
0.000249
0.000291
0.000338
0.000304
0.000252
0.000299
0.000386
0.000451
0.000357
0.000252
0.000197
0.000283
0.000283
0.000236
0.000215
0.000278
0.000273
0.000252
0.000331
0.000375
0.000289
0.000262
0.000391
0.000391
0.000331
0.000359
0.000386
0.000304
0.000199
0.000299
0.000412
0.000317
0.000228
0.000325
0.000325
0.000249
0.000244
0.000289
0.000273
0.000265
0.000320
0.000367
0.000391
0.000294
0.000273
0.000338
0.000417
0.000470
0.000346
0.000296
0.000365
0.000451
0.000425
0.000417
0.000388
0.000215
0.000068
0.000060
0.000076
-0.000005
0.000024
0.000210
0.000338
0.000265
0.000197
0.000260
0.000247
0.000155
0.000168
0.000262
0.000331
0.000446
0.000485
0.000407
0.000341
0.000278
0.000278
0.000296
0.000380
0.000359
0.000275
0.000207
0.000252
0.000210
0.000073
0.000076
0.000110
0.000178
0.000315
0.000393
0.000396
0.000320
0.000254
0.000275
0.000325
0.000336
0.000304
0.000302
0.000270
0.000189
0.000191
0.000268
0.000299
0.000268
0.000320
0.000428
0.000459
0.000417
0.000325
0.000317
0.000338
0.000349
0.000226
0.000118
0.000047
0.000118
0.000220
0.000241
0.000257
0.000289
0.000304
0.000304
0.000344
0.000365
0.000312
0.000236
0.000094
0.000157
0.000317
0.000354
0.000401
0.000428
0.000464
0.000349
0.000249
0.000325
0.000362
0.000320
0.000307
0.000401
0.000357
0.000281
0.000346
0.000456
0.000281
0.000131
0.000186
0.000205
0.000126
0.000160
0.000354
0.000365
0.000275
0.000207
0.000102
0.000066
0.000034
0.000052
0.000178
0.000273
0.000380
0.000325
0.000210
0.000202
0.000278
0.000325
0.000239
0.000160
0.000210
0.000354
0.000435
0.000480
0.000438
0.000349
0.000265
0.000336
0.000399
0.000378
0.000294
0.000215
0.000210
0.000128
0.000210
0.000291
0.000286
0.000270
0.000173
0.000152
0.000197
0.000241
0.000215
0.000189
0.000173
0.000191
0.000165
0.000142
0.000105
0.000084
0.000092
0.000123
0.000131
0.000144
0.000202
0.000378
0.000472
0.000496
0.000488
0.000472
0.000514
0.000504
0.000430
0.000420
0.000396
0.000396
0.000331
0.000331
0.000328
0.000244
0.000181
0.000252
0.000375
0.000354
0.000331
0.000386
0.000467
0.000493
0.000535
0.000590
0.000569
0.000462
0.000396
0.000488
0.000509
0.000425
0.000349
0.000346
0.000412
0.000378
0.000299
0.000299
0.000328
0.000367
0.000420
0.000501
0.000488
0.000441
0.000331
0.000325
0.000341
0.000299
0.000157
0.000107
0.000236
0.000283
0.000152
0.000079
0.000118
0.000128
0.000176
0.000247
0.000315
0.000268
0.000331
0.000435
0.000540
0.000540
0.000388
0.000194
0.000134
0.000118
0.000176
0.000257
0.000304
0.000307
0.000254
0.000194
0.000260
0.000396
0.000323
0.000226
0.000273
0.000357
0.000357
0.000328
0.000362
0.000388
0.000212
0.000163
0.000273
0.000226
0.000157
0.000344
0.000501
0.000449
0.000430
0.000514
0.000551
0.000393
0.000268
0.000249
0.000265
0.000252
0.000202
0.000241
0.000199
0.000094
0.000050
0.000105
0.000160
0.000157
0.000123
0.000241
0.000312
0.000283
0.000328
0.000386
0.000299
0.000239
0.000278
0.000283
0.000160
0.000152
0.000281
0.000286
0.000210
0.000244
0.000362
0.000354
0.000338
0.000425
0.000501
0.000488
0.000456
0.000441
0.000294
0.000157
0.000205
0.000333
0.000378
0.000307
0.000338
0.000472
0.000414
0.000315
0.000210
0.000215
0.000254
0.000323
0.000391
0.000438
0.000370
0.000349
0.000283
0.000286
0.000294
0.000241
0.000241
0.000375
0.000498
0.000454
0.000362
0.000370
0.000417
0.000396
0.000304
0.000362
0.000349
0.000289
0.000344
0.000352
0.000370
0.000375
0.000375
0.000325
0.000286
0.000278
0.000336
0.000378
0.000412
0.000475
0.000525
0.000467
0.000512
0.000525
0.000493
0.000451
0.000422
0.000307
0.000220
0.000278
0.000346
0.000357
0.000244
0.000249
0.000268
0.000299
0.000281
0.000328
0.000477
0.000475
0.000451
0.000538
0.000546
0.000488
0.000459
0.000433
0.000378
0.000289
0.000386
0.000443
0.000333
0.000194
0.000233
0.000278
0.000278
0.000257
0.000244
0.000317
0.000357
0.000443
0.000488
0.000488
0.000454
0.000286
0.000226
0.000312
0.000359
0.000315
0.000296
0.000357
0.000278
0.000220
0.000212
0.000286
0.000299
0.000331
0.000401
0.000425
0.000393
0.000430
0.000470
0.000438
0.000459
0.000462
0.000422
0.000414
0.000475
0.000464
0.000299
0.000181
0.000189
0.000210
0.000265
0.000349
0.000441
0.000417
0.000401
0.000373
0.000286
0.000189
0.000163
0.000223
0.000236
0.000320
0.000420
0.000449
0.000456
0.000456
0.000451
0.000393
0.000336
0.000302
0.000170
0.000079
0.000191
0.000317
0.000226
0.000147
0.000265
0.000304
0.000199
0.000134
0.000220
0.000283
0.000199
0.000336
0.000462
0.000404
0.000260
0.000338
0.000412
0.000354
0.000294
0.000244
0.000176
0.000249
0.000315
0.000275
0.000260
0.000399
0.000477
0.000315
0.000236
0.000228
0.000163
0.000118
0.000157
0.000244
0.000239
0.000239
0.000344
0.000386
0.000338
0.000365
0.000428
0.000401
0.000399
0.000501
0.000540
0.000462
0.000470
0.000488
0.000456
0.000391
0.000417
0.000506
0.000370
0.000294
0.000370
0.000383
0.000312
0.000367
0.000509
0.000506
0.000435
0.000435
0.000417
0.000373
0.000362
0.000404
0.000359
0.000375
0.000420
0.000420
0.000420
0.000456
0.000425
0.000310
0.000249
0.000349
0.000331
0.000165
0.000149
0.000362
0.000472
0.000467
0.000504
0.000596
0.000588
0.000438
0.000370
0.000375
0.000401
0.000409
0.000349
0.000323
0.000317
0.000302
0.000315
0.000396
0.000428
0.000404
0.000396
0.000533
0.000527
0.000485
0.000417
0.000388
0.000310
0.000310
0.000380
0.000454
0.000459
0.000472
0.000435
0.000428
0.000446
0.000441
0.000425
0.000412
0.000451
0.000422
0.000359
0.000375
0.000475
0.000454
0.000454
0.000480
0.000488
0.000483
0.000346
0.000215
0.000273
0.000404
0.000501
0.000535
0.000540
0.000451
0.000328
0.000281
0.000247
0.000147
0.000081
0.000189
0.000344
0.000380
0.000299
0.000325
0.000320
0.000254
0.000136
0.000113
0.000215
0.000275
0.000310
0.000367
0.000475
0.000443
0.000310
0.000207
0.000199
0.000333
0.000346
0.000446
0.000517
0.000519
0.000412
0.000438
0.000548
0.000522
0.000441
0.000388
0.000375
0.000362
0.000378
0.000407
0.000441
0.000391
0.000407
0.000430
0.000509
0.000540
0.000504
0.000480
0.000498
0.000464
0.000433
0.000375
0.000373
0.000388
0.000399
0.000446
0.000496
0.000533
0.000506
0.000441
0.000422
0.000357
0.000357
0.000428
0.000438
0.000367
0.000341
0.000430
0.000483
0.000383
0.000197
0.000197
0.000236
0.000328
0.000370
0.000407
0.000391
0.000362
0.000346
0.000317
0.000218
0.000268
0.000407
0.000488
0.000519
0.000614
0.000564
0.000412
0.000359
0.000430
0.000367
0.000362
0.000519
0.000580
0.000477
0.000378
0.000412
0.000462
0.000412
0.000464
0.000472
0.000454
0.000470
0.000470
0.000443
0.000451
0.000404
0.000391
0.000407
0.000546
0.000530
0.000493
0.000451
0.000504
0.000525
0.000540
0.000519
0.000538
0.000509
0.000462
0.000414
0.000441
0.000425
0.000441
0.000401
0.000401
0.000464
0.000551
0.000527
0.000451
0.000472
0.000538
0.000504
0.000491
0.000538
0.000543
0.000428
0.000451
0.000538
0.000477
0.000373
0.000438
0.000454
0.000365
0.000352
0.000451
0.000522
0.000488
0.000449
0.000485
0.000477
0.000407
0.000273
0.000068
0.000060
0.000184
0.000226
0.000210
0.000315
0.000498
0.000535
0.000546
0.000543
0.000472
0.000344
0.000312
0.000383
0.000407
0.000373
0.000404
0.000422
0.000417
0.000401
0.000433
0.000414
0.000367
0.000399
0.000407
0.000428
0.000483
0.000501
0.000451
0.000367
0.000286
0.000257
0.000312
0.000375
0.000433
0.000443
0.000443
0.000477
0.000585
0.000635
0.000582
0.000525
0.000467
0.000373
0.000399
0.000517
0.000548
0.000456
0.000417
0.000391
0.000328
0.000320
0.000414
0.000404
0.000407
0.000399
0.000488
0.000556
0.000585
0.000530
0.000483
0.000354
0.000254
0.000328
0.000396
0.000430
0.000504
0.000501
0.000498
0.000525
0.000556
0.000493
0.000472
0.000561
0.000603
0.000496
0.000498
0.000498
0.000428
0.000435
0.000519
0.000501
0.000412
0.000317
0.000320
0.000336
0.000359
0.000412
0.000409
0.000399
0.000412
0.000375
0.000310
0.000289
0.000331
0.000375
0.000435
0.000483
0.000475
0.000498
0.000533
0.000548
0.000509
0.000428
0.000370
0.000441
0.000475
0.000475
0.000362
0.000260
0.000252
0.000325
0.000359
0.000357
0.000380
0.000357
0.000239
0.000239
0.000338
0.000441
0.000477
0.000493
0.000462
0.000338
0.000409
0.000525
0.000509
0.000357
0.000294
0.000380
0.000496
0.000556
0.000561
0.000540
0.000443
0.000420
0.000488
0.000554
0.000530
0.000464
0.000446
0.000456
0.000506
0.000577
0.000609
0.000617
0.000627
0.000569
0.000414
0.000312
0.000247
0.000157
0.000118
0.000215
0.000388
0.000401
0.000352
0.000386
0.000475
0.000428
0.000477
0.000601
0.000630
0.000480
0.000344
0.000346
0.000433
0.000464
0.000504
0.000543
0.000596
0.000598
0.000582
0.000493
0.000396
0.000375
0.000338
0.000155
0.000123
0.000239
0.000325
0.000270
0.000323
0.000375
0.000391
0.000362
0.000443
0.000514
0.000454
0.000391
0.000467
0.000493
0.000391
0.000325
0.000312
0.000320
0.000362
0.000391
0.000378
0.000441
0.000498
0.000475
0.000438
0.000420
0.000472
0.000454
0.000401
0.000417
0.000564
0.000546
0.000525
0.000443
0.000417
0.000417
0.000454
0.000435
0.000393
0.000315
0.000365
0.000380
0.000459
0.000517
0.000554
0.000509
0.000475
0.000475
0.000420
0.000331
0.000346
0.000417
0.000409
0.000325
0.000315
0.000386
0.000496
0.000491
0.000504
0.000488
0.000530
0.000519
0.000459
0.000391
0.000341
0.000257
0.000268
0.000310
0.000341
0.000383
0.000451
0.000480
0.000435
0.000302
0.000312
0.000328
0.000435
0.000501
0.000475
0.000456
0.000454
0.000435
0.000407
0.000422
0.000491
0.000546
0.000538
0.000522
0.000472
0.000414
0.000409
0.000367
0.000375
0.000370
0.000388
0.000456
0.000449
0.000378
0.000475
0.000512
0.000527
0.000464
0.000446
0.000475
0.000491
0.000472
0.000470
0.000438
0.000454
0.000493
0.000538
0.000567
0.000619
0.000653
0.000611
0.000488
0.000425
0.000443
0.000548
0.000554
0.000530
0.000564
0.000596
0.000551
0.000477
0.000386
0.000270
0.000299
0.000464
0.000512
0.000443
0.000414
0.000417
0.000357
0.000352
0.000407
0.000430
0.000349
0.000391
0.000483
0.000467
0.000464
0.000456
0.000401
0.000354
0.000325
0.000336
0.000375
0.000420
0.000359
0.000352
0.000417
0.000477
0.000459
0.000430
0.000449
0.000472
0.000414
0.000504
0.000611
0.000606
0.000561
0.000546
0.000533
0.000491
0.000491
0.000475
0.000404
0.000391
0.000391
0.000404
0.000401
0.000441
0.000512
0.000527
0.000483
0.000412
0.000317
0.000199
0.000233
0.000370
0.000422
0.000428
0.000446
0.000509
0.000543
0.000527
0.000488
0.000548
0.000519
0.000443
0.000375
0.000386
0.000375
0.000373
0.000443
0.000538
0.000512
0.000446
0.000509
0.000603
0.000593
0.000533
0.000498
0.000454
0.000441
0.000404
0.000428
0.000477
0.000470
0.000475
0.000485
0.000535
0.000598
0.000611
0.000554
0.000470
0.000407
0.000407
0.000441
0.000375
0.000367
0.000352
0.000357
0.000438
0.000488
0.000540
0.000519
0.000462
0.000488
0.000477
0.000315
0.000260
0.000226
0.000223
0.000228
0.000278
0.000262
0.000302
0.000388
0.000467
0.000498
0.000517
0.000493
0.000428
0.000310
0.000226
0.000291
0.000357
0.000336
0.000275
0.000236
0.000247
0.000278
0.000357
0.000467
0.000546
0.000543
0.000572
0.000624
0.000645
0.000567
0.000470
0.000438
0.000422
0.000352
0.000268
0.000331
0.000464
0.000525
0.000470
0.000514
0.000603
0.000504
0.000388
0.000401
0.000493
0.000517
0.000467
0.000462
0.000509
0.000522
0.000504
0.000538
0.000585
0.000572
0.000548
0.000551
0.000614
0.000561
0.000456
0.000435
0.000519
0.000512
0.000475
0.000464
0.000480
0.000498
0.000446
0.000409
0.000456
0.000525
0.000575
0.000504
0.000519
0.000575
0.000611
0.000530
0.000456
0.000446
0.000430
0.000373
0.000412
0.000433
0.000380
0.000362
0.000451
0.000519
0.000519
0.000517
0.000588
0.000614
0.000585
0.000567
0.000567
0.000548
0.000548
0.000577
0.000527
0.000538
0.000451
0.000299
0.000247
0.000328
0.000467
0.000407
0.000320
0.000383
0.000496
0.000551
0.000509
0.000498
0.000464
0.000367
0.000252
0.000278
0.000373
0.000375
0.000391
0.000323
0.000344
0.000315
0.000265
0.000307
0.000312
0.000197
0.000212
0.000433
0.000543
0.000496
0.000428
0.000488
0.000543
0.000412
0.000341
0.000417
0.000501
0.000519
0.000530
0.000590
0.000622
0.000622
0.000624
0.000598
0.000472
0.000352
0.000315
0.000365
0.000373
0.000428
0.000422
0.000370
0.000420
0.000464
0.000522
0.000493
0.000464
0.000401
0.000294
0.000275
0.000320
0.000383
0.000409
0.000425
0.000409
0.000517
0.000575
0.000575
0.000593
0.000548
0.000535
0.000593
0.000677
0.000627
0.000575
0.000501
0.000433
0.000399
0.000438
0.000399
0.000386
0.000417
0.000428
0.000430
0.000470
0.000420
0.000346
0.000336
0.000430
0.000501
0.000514
0.000564
0.000614
0.000567
0.000556
0.000533
0.000548
0.000493
0.000428
0.000456
0.000504
0.000493
0.000491
0.000519
0.000527
0.000567
0.000556
0.000506
0.000396
0.000446
0.000538
0.000617
0.000627
0.000624
0.000569
0.000538
0.000506
0.000472
0.000477
0.000386
0.000388
0.000346
0.000401
0.000409
0.000430
0.000485
0.000540
0.000556
0.000533
0.000559
0.000588
0.000477
0.000449
0.000485
0.000525
0.000551
0.000575
0.000638
0.000575
0.000540
0.000480
0.000273
0.000168
0.000199
0.000291
0.000289
0.000341
0.000530
0.000512
0.000383
0.000435
0.000559
0.000559
0.000522
0.000648
0.000609
0.000399
0.000354
0.000467
0.000422
0.000286
0.000380
0.000543
0.000467
0.000396
0.000459
0.000546
0.000454
0.000409
0.000456
0.000496
0.000496
0.000504
0.000509
0.000561
0.000538
0.000535
0.000614
0.000624
0.000554
0.000582
0.000572
0.000535
0.000493
0.000514
0.000530
0.000485
0.000514
0.000567
0.000525
0.000470
0.000498
0.000454
0.000344
0.000380
0.000533
0.000577
0.000564
0.000603
0.000606
0.000569
0.000559
0.000609
0.000477
0.000333
0.000325
0.000485
0.000546
0.000522
0.000525
0.000459
0.000399
0.000433
0.000538
0.000530
0.000462
0.000472
0.000470
0.000509
0.000561
0.000603
0.000580
0.000590
0.000580
0.000561
0.000459
0.000491
0.000480
0.000430
0.000485
0.000596
0.000596
0.000530
0.000517
0.000567
0.000509
0.000428
0.000464
0.000483
0.000449
0.000446
0.000556
0.000611
0.000569
0.000533
0.000464
0.000477
0.000485
0.000470
0.000428
0.000412
0.000420
0.000435
0.000525
0.000606
0.000622
0.000535
0.000454
0.000451
0.000435
0.000409
0.000401
0.000422
0.000428
0.000449
0.000454
0.000409
0.000422
0.000493
0.000496
0.000467
0.000504
0.000596
0.000556
0.000498
0.000464
0.000370
0.000296
0.000412
0.000561
0.000559
0.000530
0.000546
0.000517
0.000443
0.000325
0.000270
0.000281
0.000412
0.000554
0.000543
0.000485
0.000420
0.000391
0.000396
0.000519
0.000590
0.000598
0.000614
0.000585
0.000569
0.000588
0.000624
0.000588
0.000554
0.000488
0.000493
0.000488
0.000525
0.000561
0.000491
0.000517
0.000590
0.000525
0.000540
0.000559
0.000580
0.000512
0.000401
0.000464
0.000483
0.000435
0.000477
0.000572
0.000624
0.000533
0.000551
0.000575
0.000514
0.000496
0.000517
0.000551
0.000601
0.000590
0.000606
0.000580
0.000491
0.000512
0.000543
0.000462
0.000438
0.000509
0.000548
0.000556
0.000546
0.000480
0.000396
0.000365
0.000464
0.000559
0.000512
0.000498
0.000512
0.000512
0.000480
0.000430
0.000404
0.000493
0.000498
0.000388
0.000344
0.000435
0.000456
0.000480
0.000533
0.000569
0.000575
0.000601
0.000603
0.000509
0.000414
0.000359
0.000365
0.000357
0.000404
0.000441
0.000459
0.000525
0.000603
0.000611
0.000598
0.000564
0.000609
0.000622
0.000575
0.000525
0.000467
0.000475
0.000456
0.000414
0.000433
0.000548
0.000598
0.000569
0.000556
0.000535
0.000561
0.000551
0.000548
0.000567
0.000546
0.000580
0.000554
0.000491
0.000498
0.000498
0.000493
0.000548
0.000527
0.000422
0.000380
0.000425
0.000412
0.000315
0.000317
0.000454
0.000480
0.000412
0.000488
0.000548
0.000501
0.000472
0.000582
0.000627
0.000567
0.000548
0.000603
0.000556
0.000548
0.000522
0.000470
0.000433
0.000428
0.000491
0.000585
0.000575
0.000533
0.000485
0.000512
0.000543
0.000517
0.000491
0.000422
0.000349
0.000296
0.000304
0.000344
0.000396
0.000438
0.000491
0.000538
0.000606
0.000635
0.000677
0.000700
0.000695
0.000645
0.000546
0.000491
0.000530
0.000470
0.000422
0.000412
0.000462
0.000509
0.000519
0.000501
0.000449
0.000373
0.000422
0.000467
0.000459
0.000373
0.000341
0.000449
0.000551
0.000603
0.000561
0.000525
0.000538
0.000504
0.000527
0.000575
0.000569
0.000554
0.000540
0.000551
0.000519
0.000456
0.000438
0.000386
0.000349
0.000417
0.000480
0.000485
0.000459
0.000475
0.000540
0.000533
0.000443
0.000409
0.000404
0.000435
0.000441
0.000441
0.000501
0.000493
0.000433
0.000386
0.000472
0.000467
0.000375
0.000380
0.000443
0.000504
0.000491
0.000519
0.000522
0.000554
0.000477
0.000454
0.000496
0.000454
0.000407
0.000362
0.000328
0.000373
0.000430
0.000491
0.000535
0.000575
0.000527
0.000506
0.000493
0.000467
0.000464
0.000467
0.000459
0.000420
0.000451
0.000477
0.000443
0.000491
0.000569
0.000575
0.000559
0.000590
0.000593
0.000598
0.000601
0.000632
0.000617
0.000561
0.000527
0.000483
0.000393
0.000359
0.000391
0.000409
0.000370
0.000456
0.000567
0.000590
0.000554
0.000596
0.000580
0.000522
0.000477
0.000530
0.000554
0.000512
0.000517
0.000464
0.000438
0.000522
0.000559
0.000564
0.000548
0.000567
0.000611
0.000598
0.000546
0.000501
0.000417
0.000449
0.000519
0.000467
0.000370
0.000454
0.000509
0.000441
0.000435
0.000506
0.000572
0.000535
0.000559
0.000627
0.000575
0.000543
0.000590
0.000640
0.000543
0.000483
0.000480
0.000404
0.000391
0.000438
0.000501
0.000525
0.000556
0.000638
0.000656
0.000593
0.000546
0.000603
0.000561
0.000509
0.000501
0.000535
0.000538
0.000535
0.000554
0.000564
0.000477
0.000454
0.000425
0.000422
0.000420
0.000475
0.000517
0.000540
0.000580
0.000630
0.000606
0.000653
0.000651
0.000630
0.000559
0.000498
0.000533
0.000472
0.000428
0.000493
0.000569
0.000551
0.000546
0.000640
0.000653
0.000585
0.000493
0.000459
0.000475
0.000467
0.000472
0.000454
0.000430
0.000498
0.000535
0.000543
0.000546
0.000517
0.000462
0.000454
0.000449
0.000399
0.000435
0.000391
0.000417
0.000506
0.000585
0.000640
0.000611
0.000585
0.000572
0.000575
0.000593
0.000533
0.000386
0.000401
0.000519
0.000449
0.000396
0.000485
0.000564
0.000530
0.000540
0.000606
0.000540
0.000425
0.000454
0.000551
0.000561
0.000554
0.000564
0.000522
0.000456
0.000527
0.000619
0.000585
0.000598
0.000638
0.000693
0.000645
0.000669
0.000656
0.000548
0.000480
0.000475
0.000435
0.000399
0.000475
0.000572
0.000569
0.000449
0.000393
0.000446
0.000512
0.000509
0.000512
0.000522
0.000585
0.000603
0.000627
0.000632
0.000572
0.000509
0.000590
0.000585
0.000551
0.000459
0.000383
0.000407
0.000391
0.000378
0.000435
0.000480
0.000472
0.000543
0.000506
0.000506
0.000564
0.000593
0.000622
0.000598
0.000582
0.000580
0.000506
0.000535
0.000569
0.000546
0.000561
0.000611
0.000588
0.000559
0.000506
0.000548
0.000540
0.000546
0.000564
0.000548
0.000559
0.000512
0.000556
0.000572
0.000551
0.000514
0.000425
0.000435
0.000517
0.000488
0.000459
0.000575
0.000643
0.000588
0.000575
0.000622
0.000603
0.000433
0.000378
0.000470
0.000498
0.000454
0.000540
0.000622
0.000619
0.000585
0.000606
0.000643
0.000606
0.000533
0.000582
0.000593
0.000603
0.000572
0.000580
0.000462
0.000393
0.000302
0.000365
0.000498
0.000467
0.000441
0.000543
0.000569
0.000519
0.000477
0.000577
0.000533
0.000422
0.000438
0.000475
0.000496
0.000551
0.000648
0.000700
0.000624
0.000617
0.000525
0.000462
0.000435
0.000491
0.000590
0.000561
0.000554
0.000564
0.000493
0.000527
0.000564
0.000546
0.000477
0.000485
0.000509
0.000512
0.000582
0.000619
0.000582
0.000519
0.000580
0.000648
0.000630
0.000624
0.000575
0.000535
0.000472
0.000514
0.000585
0.000619
0.000551
0.000509
0.000506
0.000543
0.000535
0.000564
0.000622
0.000603
0.000577
0.000569
0.000567
0.000577
0.000582
0.000611
0.000656
0.000635
0.000648
0.000682
0.000648
0.000627
0.000585
0.000546
0.000540
0.000585
0.000593
0.000593
0.000598
0.000653
0.000635
0.000609
0.000643
0.000695
0.000658
0.000611
0.000535
0.000514
0.000569
0.000598
0.000593
0.000645
0.000588
0.000538
0.000582
0.000638
0.000638
0.000543
0.000477
0.000470
0.000480
0.000472
0.000512
0.000556
0.000548
0.000582
0.000596
0.000540
0.000504
0.000519
0.000564
0.000564
0.000522
0.000519
0.000543
0.000543
0.000519
0.000512
0.000462
0.000388
0.000441
0.000504
0.000512
0.000530
0.000588
0.000564
0.000538
0.000580
0.000567
0.000575
0.000554
0.000614
0.000512
0.000454
0.000590
0.000627
0.000514
0.000491
0.000554
0.000569
0.000488
0.000493
0.000506
0.000438
0.000443
0.000556
0.000590
0.000548
0.000538
0.000559
0.000611
0.000564
0.000575
0.000624
0.000651
0.000627
0.000643
0.000624
0.000603
0.000546
0.000530
0.000548
0.000540
0.000493
0.000449
0.000446
0.000514
0.000572
0.000614
0.000622
0.000606
0.000554
0.000519
0.000522
0.000519
0.000493
0.000441
0.000561
0.000619
0.000480
0.000396
0.000475
0.000556
0.000567
0.000580
0.000666
0.000690
0.000664
0.000556
0.000493
0.000501
0.000451
0.000451
0.000451
0.000506
0.000559
0.000585
0.000619
0.000624
0.000624
0.000546
0.000506
0.000525
0.000519
0.000506
0.000561
0.000588
0.000540
0.000509
0.000561
0.000624
0.000648
0.000624
0.000645
0.000638
0.000632
0.000664
0.000687
0.000653
0.000609
0.000535
0.000525
0.000501
0.000517
0.000530
0.000546
0.000530
0.000525
0.000551
0.000517
0.000491
0.000522
0.000491
0.000504
0.000575
0.000651
0.000622
0.000619
0.000572
0.000598
0.000585
0.000609
0.000590
0.000593
0.000598
0.000656
0.000648
0.000596
0.000582
0.000472
0.000425
0.000467
0.000422
0.000420
0.000459
0.000485
0.000504
0.000522
0.000556
0.000551
0.000519
0.000491
0.000519
0.000567
0.000548
0.000593
0.000551
0.000441
0.000414
0.000533
0.000617
0.000601
0.000582
0.000638
0.000609
0.000517
0.000496
0.000535
0.000506
0.000464
0.000525
0.000561
0.000501
0.000546
0.000653
0.000664
0.000619
0.000617
0.000643
0.000598
0.000572
0.000582
0.000596
0.000577
0.000567
0.000575
0.000475
0.000370
0.000391
0.000533
0.000522
0.000491
0.000561
0.000645
0.000672
0.000669
0.000685
0.000658
0.000614
0.000596
0.000575
0.000622
0.000606
0.000556
0.000512
0.000477
0.000512
0.000546
0.000540
0.000611
0.000606
0.000609
0.000648
0.000643
0.000695
0.000617
0.000530
0.000530
0.000517
0.000506
0.000480
0.000517
0.000538
0.000567
0.000624
0.000619
0.000582
0.000580
0.000611
0.000577
0.000572
0.000627
0.000664
0.000598
0.000548
0.000533
0.000538
0.000606
0.000622
0.000603
0.000530
0.000504
0.000535
0.000582
0.000596
0.000585
0.000548
0.000575
0.000603
0.000630
0.000627
0.000614
0.000632
0.000666
0.000611
0.000619
0.000601
0.000624
0.000564
0.000538
0.000533
0.000585
0.000598
0.000559
0.000522
0.000491
0.000462
0.000352
0.000346
0.000430
0.000459
0.000480
0.000446
0.000525
0.000575
0.000554
0.000559
0.000538
0.000535
0.000519
0.000467
0.000483
0.000483
0.000464
0.000509
0.000598
0.000617
0.000635
0.000700
0.000700
0.000672
0.000711
0.000703
0.000677
0.000669
0.000664
0.000603
0.000606
0.000564
0.000480
0.000477
0.000483
0.000435
0.000407
0.000522
0.000638
0.000656
0.000672
0.000679
0.000679
0.000622
0.000656
0.000672
0.000559
0.000451
0.000525
0.000525
0.000546
0.000564
0.000567
0.000540
0.000543
0.000575
0.000590
0.000630
0.000575
0.000575
0.000601
0.000630
0.000580
0.000441
0.000454
0.000451
0.000446
0.000449
0.000533
0.000596
0.000596
0.000551
0.000556
0.000582
0.000559
0.000588
0.000546
0.000554
0.000630
0.000640
0.000632
0.000651
0.000624
0.000601
0.000575
0.000619
0.000638
0.000648
0.000590
0.000582
0.000582
0.000519
0.000472
0.000441
0.000467
0.000493
0.000464
0.000498
0.000540
0.000527
0.000538
0.000593
0.000603
0.000441
0.000393
0.000517
0.000569
0.000459
0.000428
0.000535
0.000603
0.000543
0.000577
0.000643
0.000666
0.000598
0.000593
0.000611
0.000559
0.000527
0.000569
0.000617
0.000580
0.000635
0.000672
0.000614
0.000567
0.000514
0.000467
0.000462
0.000559
0.000598
0.000564
0.000519
0.000535
0.000493
0.000470
0.000512
0.000582
0.000546
0.000572
0.000627
0.000598
0.000614
0.000679
0.000658
0.000617
0.000590
0.000554
0.000501
0.000498
0.000522
0.000535
0.000535
0.000590
0.000661
0.000661
0.000617
0.000593
0.000585
0.000575
0.000559
0.000540
0.000519
0.000456
0.000480
0.000501
0.000517
0.000522
0.000556
0.000575
0.000627
0.000640
0.000653
0.000609
0.000548
0.000575
0.000580
0.000575
0.000567
0.000564
0.000593
0.000598
0.000601
0.000609
0.000614
0.000554
0.000611
0.000598
0.000493
0.000446
0.000504
0.000569
0.000522
0.000564
0.000617
0.000572
0.000598
0.000619
0.000635
0.000648
0.000651
0.000706
0.000672
0.000627
0.000575
0.000496
0.000488
0.000530
0.000543
0.000530
0.000546
0.000582
0.000512
0.000483
0.000501
