Start time = 18:20:29.367594
End time = 18:20:39.304940
laser_energy = 6.550
channel_1_dial = 850
channel_2_dial = 850
channel_3_dial = 850
channel_4_dial = 850
NG-1-LII = 0
NG-3-15399 = 0
NG-4-LII = 0
NG-4-15399 = 0
NG-5-LII = 0
NG-5-15399 = 0
NG-9-LII = 0
NG-9-15399 = 0
NG-10-01 = 0
NG-11-15399 = 0
NG-12-15399 = 0
NG-4A-2001 = 0
NG-4B-2001 = 0
NG-5A-2001 = 0
NG-3-2001 = 0
NG-5B-2001 = 0
NG-1-2001 = 0
NG-9-2001 = 0
NG-10-2001 = 0
NG-11-2001 = 0
NG-12-2001 = 0
AND-200SN09 = 0
AND-100SN09 = 0
AND-050SN09 = 0
AND-030SN09 = 0
AND-015SN05 = 0
PMT#1Voltage = 0
PMT#2Voltage = 0
t0(sec) = 0.000000E+0
dt(sec) = 4.000000E-10
F1:INSP "
DESCRIPTOR_NAME    : WAVEDESC           
TEMPLATE_NAME      : LECROY_2_3         
COMM_TYPE          : word               
COMM_ORDER         : HIFIRST            
WAVE_DESCRIPTOR    : 346                
USER_TEXT          : 0                  
RES_DESC1          : 0                  
TRIGTIME_ARRAY     : 0                  
RIS_TIME_ARRAY     : 0                  
RES_ARRAY1         : 0                  
WAVE_ARRAY_1       : 10002              
WAVE_ARRAY_2       : 0                  
RES_ARRAY2         : 0                  
RES_ARRAY3         : 0                  
INSTRUMENT_NAME    : LECROYHDO6104      
INSTRUMENT_NUMBER  : 6308               
TRACE_LABEL        :                    
RESERVED1          : 5001               
RESERVED2          : 0                  
WAVE_ARRAY_COUNT   : 5001               
PNTS_PER_SCREEN    : 5000               
FIRST_VALID_PNT    : 0                  
LAST_VALID_PNT     : 5000               
FIRST_POINT        : 0                  
SPARSING_FACTOR    : 1                  
SEGMENT_INDEX      : 0                  
SUBARRAY_COUNT     : 1                  
SWEEPS_PER_ACQ     : 200                
POINTS_PER_PAIR    : 0                  
PAIR_OFFSET        : 0                  
VERTICAL_GAIN      : 2.6238e-006        
VERTICAL_OFFSET    : 6.5501e-002        
MAX_VALUE          : 3.0816e+004        
MIN_VALUE          : 1.3388e+004        
NOMINAL_BITS       : 16                 
NOM_SUBARRAY_COUNT : 1                  
HORIZ_INTERVAL     : 4.0000e-010        
HORIZ_OFFSET       : -2.00000000e-007   
PIXEL_OFFSET       : -2.00000000e-007   
VERTUNIT           : Unit Name = V
HORUNIT            : Unit Name = S
HORIZ_UNCERTAINTY  : 1.0000e-012        
TRIGGER_TIME       : Date = APR 17, 2024, Time = 19:20:25.261639918
ACQ_DURATION       : 9.9991e+000        
RECORD_TYPE        : single_sweep       
PROCESSING_DONE    : no_processing      
RESERVED5          : 0                  
RIS_SWEEPS         : 1                  
TIMEBASE           : 200_ns/div         
VERT_COUPLING      : DC_50_Ohms         
PROBE_ATT          : 1.0000e+000        
FIXED_VERT_GAIN    : 5_mV/div           
BANDWIDTH_LIMIT    : off                
VERTICAL_VERNIER   : 1.1600e+000        
ACQ_VERT_OFFSET    : 0.0000e+000        
WAVE_SOURCE        : UNKNOWN            
"
0.000194
0.000202
0.000220
0.000228
0.000231
0.000241
0.000244
0.000241
0.000252
0.000220
0.000247
0.000212
0.000270
0.000236
0.000252
0.000249
0.000228
0.000231
0.000257
0.000228
0.000241
0.000239
0.000244
0.000233
0.000239
0.000218
0.000223
0.000228
0.000239
0.000223
0.000257
0.000252
0.000254
0.000268
0.000244
0.000239
0.000252
0.000241
0.000244
0.000241
0.000236
0.000226
0.000254
0.000233
0.000231
0.000239
0.000241
0.000218
0.000218
0.000223
0.000202
0.000189
0.000212
0.000186
0.000197
0.000197
0.000199
0.000220
0.000207
0.000244
0.000252
0.000252
0.000252
0.000231
0.000202
0.000223
0.000220
0.000197
0.000247
0.000236
0.000247
0.000239
0.000249
0.000220
0.000241
0.000228
0.000252
0.000228
0.000210
0.000215
0.000236
0.000197
0.000231
0.000215
0.000207
0.000210
0.000210
0.000170
0.000207
0.000194
0.000218
0.000199
0.000223
0.000210
0.000226
0.000236
0.000252
0.000244
0.000236
0.000260
0.000252
0.000241
0.000226
0.000231
0.000241
0.000252
0.000236
0.000233
0.000233
0.000210
0.000231
0.000239
0.000226
0.000241
0.000226
0.000231
0.000226
0.000231
0.000218
0.000212
0.000202
0.000210
0.000231
0.000231
0.000231
0.000210
0.000239
0.000236
0.000236
0.000218
0.000215
0.000212
0.000223
0.000189
0.000218
0.000212
0.000223
0.000226
0.000239
0.000228
0.000247
0.000218
0.000247
0.000212
0.000231
0.000228
0.000254
0.000231
0.000226
0.000236
0.000223
0.000231
0.000262
0.000241
0.000220
0.000247
0.000239
0.000218
0.000247
0.000233
0.000233
0.000257
0.000244
0.000247
0.000239
0.000223
0.000249
0.000233
0.000254
0.000236
0.000236
0.000244
0.000254
0.000233
0.000210
0.000220
0.000223
0.000215
0.000207
0.000215
0.000231
0.000228
0.000257
0.000233
0.000244
0.000223
0.000231
0.000189
0.000226
0.000233
0.000202
0.000210
0.000239
0.000236
0.000223
0.000205
0.000226
0.000236
0.000215
0.000239
0.000223
0.000212
0.000210
0.000218
0.000220
0.000247
0.000233
0.000197
0.000247
0.000265
0.000233
0.000210
0.000231
0.000220
0.000212
0.000220
0.000249
0.000231
0.000189
0.000226
0.000226
0.000215
0.000231
0.000205
0.000197
0.000194
0.000191
0.000212
0.000220
0.000223
0.000228
0.000233
0.000249
0.000241
0.000262
0.000239
0.000254
0.000249
0.000215
0.000231
0.000228
0.000199
0.000257
0.000223
0.000223
0.000212
0.000220
0.000231
0.000218
0.000202
0.000241
0.000212
0.000233
0.000223
0.000228
0.000231
0.000239
0.000197
0.000197
0.000226
0.000236
0.000194
0.000241
0.000233
0.000233
0.000220
0.000233
0.000247
0.000228
0.000207
0.000212
0.000199
0.000184
0.000202
0.000239
0.000226
0.000257
0.000244
0.000247
0.000218
0.000231
0.000184
0.000212
0.000178
0.000202
0.000176
0.000178
0.000147
0.000191
0.000202
0.000199
0.000218
0.000212
0.000233
0.000262
0.000223
0.000252
0.000228
0.000236
0.000212
0.000231
0.000220
0.000202
0.000212
0.000207
0.000223
0.000236
0.000205
0.000215
0.000228
0.000226
0.000249
0.000220
0.000268
0.000236
0.000207
0.000228
0.000231
0.000226
0.000228
0.000236
0.000212
0.000233
0.000220
0.000210
0.000215
0.000215
0.000223
0.000239
0.000215
0.000252
0.000231
0.000226
0.000252
0.000231
0.000220
0.000223
0.000202
0.000223
0.000236
0.000226
0.000220
0.000228
0.000239
0.000228
0.000239
0.000241
0.000254
0.000226
0.000218
0.000228
0.000184
0.000212
0.000197
0.000228
0.000231
0.000218
0.000199
0.000215
0.000205
0.000212
0.000184
0.000233
0.000220
0.000207
0.000244
0.000233
0.000244
0.000226
0.000239
0.000241
0.000247
0.000254
0.000226
0.000249
0.000241
0.000220
0.000215
0.000207
0.000226
0.000205
0.000210
0.000231
0.000218
0.000226
0.000220
0.000262
0.000241
0.000241
0.000239
0.000260
0.000254
0.000244
0.000278
0.000252
0.000249
0.000226
0.000254
0.000247
0.000260
0.000252
0.000223
0.000218
0.000181
0.000176
0.000207
0.000231
0.000205
0.000247
0.000231
0.000244
0.000173
0.000197
0.000207
0.000218
0.000252
0.000268
0.000260
0.000231
0.000244
0.000257
0.000249
0.000231
0.000194
0.000199
0.000218
0.000205
0.000205
0.000252
0.000210
0.000210
0.000199
0.000212
0.000210
0.000236
0.000270
0.000307
0.000283
0.000257
0.000189
0.000191
0.000160
0.000176
0.000191
0.000207
0.000212
0.000262
0.000283
0.000286
0.000283
0.000268
0.000202
0.000165
0.000155
0.000142
0.000207
0.000218
0.000199
0.000210
0.000207
0.000226
0.000254
0.000265
0.000333
0.000341
0.000299
0.000296
0.000210
0.000178
0.000136
0.000176
0.000165
0.000186
0.000173
0.000157
0.000155
0.000157
0.000160
0.000197
0.000212
0.000210
0.000220
0.000249
0.000247
0.000252
0.000260
0.000325
0.000294
0.000291
0.000317
0.000310
0.000296
0.000286
0.000233
0.000223
0.000173
0.000163
0.000157
0.000157
0.000157
0.000165
0.000152
0.000147
0.000129
0.000157
0.000207
0.000286
0.000331
0.000417
0.000412
0.000438
0.000367
0.000341
0.000315
0.000244
0.000173
0.000205
0.000123
0.000084
0.000034
0.000071
0.000108
0.000131
0.000168
0.000210
0.000228
0.000257
0.000252
0.000249
0.000233
0.000231
0.000199
0.000212
0.000181
0.000191
0.000205
0.000249
0.000291
0.000239
0.000268
0.000273
0.000273
0.000333
0.000344
0.000367
0.000341
0.000312
0.000291
0.000247
0.000189
0.000152
0.000121
0.000100
0.000029
0.000021
0.000026
0.000097
0.000071
0.000037
-0.000105
-0.000304
-0.000729
-0.001488
-0.002411
-0.003603
-0.004970
-0.006489
-0.008155
-0.009852
-0.011492
-0.012990
-0.014510
-0.015832
-0.016968
-0.017999
-0.018632
-0.018970
-0.019154
-0.019114
-0.018752
-0.018243
-0.017503
-0.016672
-0.016081
-0.015753
-0.015441
-0.015105
-0.014846
-0.014457
-0.013851
-0.013258
-0.012862
-0.012411
-0.012072
-0.011881
-0.011547
-0.011233
-0.011093
-0.010752
-0.010348
-0.009947
-0.009509
-0.009052
-0.008829
-0.008785
-0.008724
-0.008659
-0.008593
-0.008464
-0.008268
-0.008176
-0.008157
-0.008121
-0.008084
-0.008092
-0.008207
-0.008270
-0.008307
-0.008425
-0.008404
-0.008357
-0.008328
-0.008299
-0.008226
-0.008220
-0.008268
-0.008113
-0.007976
-0.007924
-0.007848
-0.007751
-0.007706
-0.007722
-0.007677
-0.007638
-0.007648
-0.007449
-0.007184
-0.007037
-0.006958
-0.006772
-0.006709
-0.006811
-0.006767
-0.006638
-0.006523
-0.006216
-0.005980
-0.005817
-0.005662
-0.005565
-0.005531
-0.005473
-0.005376
-0.005313
-0.005284
-0.005195
-0.005119
-0.005069
-0.005019
-0.004967
-0.004946
-0.004954
-0.004917
-0.004815
-0.004778
-0.004694
-0.004702
-0.004718
-0.004760
-0.004886
-0.004851
-0.004781
-0.004723
-0.004602
-0.004534
-0.004503
-0.004516
-0.004497
-0.004440
-0.004440
-0.004466
-0.004461
-0.004426
-0.004408
-0.004303
-0.004143
-0.004161
-0.004185
-0.004201
-0.004243
-0.004290
-0.004426
-0.004419
-0.004366
-0.004363
-0.004363
-0.004311
-0.004245
-0.004182
-0.004096
-0.003993
-0.003931
-0.003959
-0.003944
-0.003891
-0.003833
-0.003726
-0.003647
-0.003550
-0.003432
-0.003345
-0.003251
-0.003067
-0.002968
-0.002975
-0.003023
-0.003083
-0.003193
-0.003282
-0.003277
-0.003272
-0.003303
-0.003303
-0.003256
-0.003285
-0.003301
-0.003296
-0.003361
-0.003435
-0.003495
-0.003566
-0.003540
-0.003435
-0.003351
-0.003222
-0.003099
-0.003044
-0.003012
-0.002999
-0.002910
-0.002842
-0.002787
-0.002750
-0.002710
-0.002716
-0.002713
-0.002797
-0.002808
-0.002776
-0.002724
-0.002666
-0.002564
-0.002472
-0.002417
-0.002453
-0.002474
-0.002553
-0.002689
-0.002815
-0.002876
-0.002920
-0.002931
-0.002823
-0.002716
-0.002653
-0.002603
-0.002464
-0.002356
-0.002354
-0.002396
-0.002340
-0.002283
-0.002427
-0.002487
-0.002535
-0.002571
-0.002658
-0.002658
-0.002626
-0.002574
-0.002592
-0.002411
-0.002285
-0.002209
-0.002086
-0.002015
-0.001992
-0.001939
-0.001939
-0.001963
-0.001989
-0.002062
-0.002167
-0.002217
-0.002325
-0.002388
-0.002443
-0.002398
-0.002322
-0.002215
-0.002078
-0.002002
-0.001936
-0.001926
-0.001918
-0.001981
-0.001999
-0.001989
-0.002013
-0.002096
-0.002170
-0.002159
-0.002178
-0.002212
-0.002209
-0.002207
-0.002178
-0.002183
-0.002204
-0.002215
-0.002222
-0.002196
-0.002207
-0.002154
-0.002159
-0.002175
-0.002225
-0.002267
-0.002304
-0.002228
-0.002110
-0.001984
-0.001860
-0.001831
-0.001845
-0.001774
-0.001729
-0.001713
-0.001734
-0.001703
-0.001774
-0.001900
-0.001978
-0.001971
-0.001986
-0.001960
-0.001894
-0.001727
-0.001622
-0.001506
-0.001412
-0.001372
-0.001425
-0.001451
-0.001456
-0.001524
-0.001538
-0.001517
-0.001545
-0.001566
-0.001635
-0.001745
-0.001803
-0.001873
-0.001963
-0.001910
-0.001852
-0.001803
-0.001787
-0.001745
-0.001687
-0.001679
-0.001679
-0.001658
-0.001624
-0.001598
-0.001616
-0.001616
-0.001650
-0.001677
-0.001700
-0.001779
-0.001805
-0.001803
-0.001795
-0.001824
-0.001795
-0.001873
-0.001963
-0.001952
-0.001887
-0.001873
-0.001837
-0.001724
-0.001637
-0.001593
-0.001496
-0.001406
-0.001385
-0.001288
-0.001296
-0.001309
-0.001422
-0.001438
-0.001462
-0.001435
-0.001414
-0.001454
-0.001443
-0.001477
-0.001545
-0.001606
-0.001677
-0.001708
-0.001737
-0.001708
-0.001653
-0.001587
-0.001530
-0.001427
-0.001354
-0.001301
-0.001286
-0.001286
-0.001309
-0.001309
-0.001273
-0.001236
-0.001223
-0.001197
-0.001225
-0.001280
-0.001383
-0.001412
-0.001454
-0.001459
-0.001454
-0.001409
-0.001388
-0.001349
-0.001346
-0.001288
-0.001246
-0.001218
-0.001210
-0.001249
-0.001325
-0.001359
-0.001406
-0.001378
-0.001396
-0.001409
-0.001443
-0.001422
-0.001412
-0.001383
-0.001338
-0.001367
-0.001375
-0.001336
-0.001343
-0.001354
-0.001301
-0.001236
-0.001254
-0.001238
-0.001170
-0.001084
-0.001026
-0.000981
-0.000950
-0.000981
-0.001021
-0.001089
-0.001123
-0.001086
-0.001115
-0.001160
-0.001202
-0.001262
-0.001364
-0.001378
-0.001346
-0.001362
-0.001354
-0.001283
-0.001225
-0.001144
-0.001071
-0.001000
-0.000994
-0.000971
-0.000924
-0.000879
-0.000942
-0.001021
-0.001071
-0.001118
-0.001231
-0.001267
-0.001322
-0.001364
-0.001309
-0.001262
-0.001280
-0.001286
-0.001273
-0.001309
-0.001330
-0.001236
-0.001131
-0.001078
-0.001068
-0.001081
-0.001086
-0.001094
-0.001055
-0.000963
-0.000968
-0.000968
-0.001013
-0.001031
-0.001073
-0.001065
-0.001152
-0.001244
-0.001273
-0.001307
-0.001296
-0.001249
-0.001228
-0.001183
-0.001204
-0.001168
-0.001139
-0.001073
-0.000966
-0.000869
-0.000824
-0.000853
-0.000911
-0.000984
-0.001029
-0.001089
-0.001136
-0.001144
-0.001147
-0.001144
-0.001147
-0.001126
-0.001094
-0.001036
-0.001018
-0.000963
-0.000953
-0.000892
-0.000871
-0.000858
-0.000816
-0.000795
-0.000811
-0.000824
-0.000837
-0.000850
-0.000905
-0.000913
-0.000976
-0.000984
-0.001026
-0.001010
-0.000963
-0.000953
-0.000945
-0.000934
-0.000950
-0.000966
-0.000929
-0.000884
-0.000890
-0.000829
-0.000871
-0.000900
-0.000837
-0.000816
-0.000808
-0.000811
-0.000790
-0.000803
-0.000887
-0.000926
-0.000939
-0.000955
-0.000987
-0.000987
-0.000997
-0.001036
-0.001073
-0.001055
-0.001031
-0.000971
-0.000987
-0.000945
-0.000934
-0.000905
-0.000890
-0.000863
-0.000840
-0.000855
-0.000863
-0.000953
-0.001023
-0.001060
-0.001126
-0.001097
-0.001115
-0.001115
-0.001157
-0.001128
-0.001094
-0.001002
-0.000976
-0.000968
-0.000973
-0.000971
-0.000960
-0.000879
-0.000803
-0.000706
-0.000729
-0.000667
-0.000714
-0.000769
-0.000795
-0.000832
-0.000882
-0.000890
-0.000916
-0.000897
-0.000924
-0.000876
-0.000911
-0.000973
-0.001000
-0.001008
-0.000994
-0.000918
-0.000863
-0.000777
-0.000771
-0.000756
-0.000774
-0.000816
-0.000863
-0.000874
-0.000866
-0.000850
-0.000827
-0.000879
-0.000976
-0.000955
-0.000989
-0.000997
-0.000976
-0.000929
-0.000934
-0.000929
-0.000924
-0.000926
-0.000916
-0.000890
-0.000918
-0.000876
-0.000858
-0.000837
-0.000850
-0.000777
-0.000719
-0.000719
-0.000779
-0.000764
-0.000761
-0.000821
-0.000842
-0.000842
-0.000866
-0.000869
-0.000850
-0.000771
-0.000779
-0.000737
-0.000771
-0.000785
-0.000808
-0.000819
-0.000758
-0.000664
-0.000606
-0.000514
-0.000509
-0.000506
-0.000522
-0.000593
-0.000651
-0.000706
-0.000766
-0.000824
-0.000834
-0.000858
-0.000866
-0.000848
-0.000774
-0.000724
-0.000771
-0.000766
-0.000819
-0.000824
-0.000813
-0.000787
-0.000727
-0.000701
-0.000630
-0.000622
-0.000577
-0.000551
-0.000572
-0.000585
-0.000619
-0.000674
-0.000722
-0.000690
-0.000761
-0.000790
-0.000855
-0.000750
-0.000766
-0.000761
-0.000703
-0.000619
-0.000640
-0.000643
-0.000648
-0.000664
-0.000677
-0.000648
-0.000685
-0.000677
-0.000722
-0.000714
-0.000729
-0.000708
-0.000737
-0.000790
-0.000790
-0.000816
-0.000837
-0.000850
-0.000811
-0.000777
-0.000745
-0.000693
-0.000651
-0.000669
-0.000669
-0.000674
-0.000627
-0.000635
-0.000627
-0.000538
-0.000567
-0.000556
-0.000504
-0.000485
-0.000467
-0.000459
-0.000499
-0.000562
-0.000640
-0.000708
-0.000790
-0.000769
-0.000764
-0.000722
-0.000774
-0.000711
-0.000659
-0.000619
-0.000604
-0.000535
-0.000501
-0.000493
-0.000388
-0.000336
-0.000373
-0.000365
-0.000422
-0.000478
-0.000601
-0.000672
-0.000695
-0.000716
-0.000722
-0.000703
-0.000695
-0.000614
-0.000583
-0.000564
-0.000504
-0.000480
-0.000504
-0.000546
-0.000533
-0.000567
-0.000590
-0.000638
-0.000627
-0.000606
-0.000604
-0.000604
-0.000583
-0.000525
-0.000504
-0.000462
-0.000449
-0.000433
-0.000472
-0.000530
-0.000590
-0.000619
-0.000638
-0.000611
-0.000619
-0.000580
-0.000583
-0.000509
-0.000501
-0.000483
-0.000533
-0.000535
-0.000559
-0.000569
-0.000609
-0.000577
-0.000585
-0.000588
-0.000638
-0.000640
-0.000674
-0.000627
-0.000614
-0.000646
-0.000585
-0.000572
-0.000583
-0.000559
-0.000525
-0.000467
-0.000436
-0.000417
-0.000388
-0.000373
-0.000375
-0.000399
-0.000438
-0.000512
-0.000525
-0.000556
-0.000535
-0.000506
-0.000559
-0.000517
-0.000520
-0.000525
-0.000533
-0.000546
-0.000567
-0.000572
-0.000567
-0.000543
-0.000546
-0.000541
-0.000543
-0.000496
-0.000441
-0.000522
-0.000580
-0.000611
-0.000682
-0.000640
-0.000617
-0.000567
-0.000512
-0.000457
-0.000451
-0.000443
-0.000464
-0.000446
-0.000446
-0.000467
-0.000464
-0.000457
-0.000475
-0.000454
-0.000462
-0.000446
-0.000433
-0.000399
-0.000375
-0.000367
-0.000370
-0.000428
-0.000478
-0.000535
-0.000554
-0.000480
-0.000459
-0.000478
-0.000449
-0.000475
-0.000520
-0.000451
-0.000467
-0.000464
-0.000478
-0.000499
-0.000457
-0.000478
-0.000428
-0.000386
-0.000417
-0.000404
-0.000365
-0.000375
-0.000375
-0.000354
-0.000336
-0.000336
-0.000352
-0.000360
-0.000436
-0.000478
-0.000535
-0.000564
-0.000598
-0.000622
-0.000601
-0.000572
-0.000548
-0.000496
-0.000514
-0.000488
-0.000467
-0.000464
-0.000470
-0.000443
-0.000457
-0.000478
-0.000509
-0.000530
-0.000546
-0.000538
-0.000548
-0.000506
-0.000478
-0.000449
-0.000412
-0.000339
-0.000318
-0.000281
-0.000289
-0.000294
-0.000307
-0.000341
-0.000367
-0.000373
-0.000402
-0.000378
-0.000386
-0.000404
-0.000388
-0.000373
-0.000354
-0.000333
-0.000352
-0.000339
-0.000323
-0.000360
-0.000333
-0.000310
-0.000417
-0.000475
-0.000483
-0.000496
-0.000467
-0.000402
-0.000367
-0.000362
-0.000354
-0.000360
-0.000404
-0.000420
-0.000404
-0.000373
-0.000449
-0.000446
-0.000443
-0.000462
-0.000438
-0.000483
-0.000493
-0.000462
-0.000438
-0.000412
-0.000386
-0.000339
-0.000370
-0.000386
-0.000373
-0.000365
-0.000388
-0.000404
-0.000402
-0.000417
-0.000386
-0.000352
-0.000367
-0.000402
-0.000457
-0.000478
-0.000480
-0.000449
-0.000420
-0.000370
-0.000394
-0.000391
-0.000394
-0.000386
-0.000354
-0.000352
-0.000367
-0.000357
-0.000360
-0.000349
-0.000302
-0.000270
-0.000273
-0.000276
-0.000278
-0.000247
-0.000315
-0.000412
-0.000472
-0.000554
-0.000556
-0.000514
-0.000512
-0.000467
-0.000375
-0.000378
-0.000370
-0.000333
-0.000344
-0.000328
-0.000354
-0.000367
-0.000375
-0.000428
-0.000420
-0.000394
-0.000422
-0.000425
-0.000381
-0.000357
-0.000399
-0.000407
-0.000399
-0.000391
-0.000415
-0.000451
-0.000417
-0.000394
-0.000407
-0.000391
-0.000402
-0.000386
-0.000360
-0.000352
-0.000331
-0.000270
-0.000315
-0.000302
-0.000289
-0.000341
-0.000304
-0.000281
-0.000270
-0.000270
-0.000260
-0.000234
-0.000257
-0.000255
-0.000244
-0.000218
-0.000202
-0.000236
-0.000226
-0.000257
-0.000299
-0.000239
-0.000257
-0.000281
-0.000289
-0.000331
-0.000339
-0.000297
-0.000289
-0.000315
-0.000289
-0.000318
-0.000346
-0.000365
-0.000346
-0.000336
-0.000328
-0.000320
-0.000320
-0.000276
-0.000291
-0.000220
-0.000244
-0.000226
-0.000202
-0.000215
-0.000226
-0.000268
-0.000231
-0.000228
-0.000276
-0.000265
-0.000299
-0.000281
-0.000286
-0.000281
-0.000315
-0.000310
-0.000315
-0.000310
-0.000352
-0.000331
-0.000320
-0.000349
-0.000312
-0.000268
-0.000257
-0.000249
-0.000226
-0.000231
-0.000281
-0.000289
-0.000241
-0.000239
-0.000234
-0.000207
-0.000268
-0.000312
-0.000302
-0.000323
-0.000315
-0.000270
-0.000278
-0.000252
-0.000205
-0.000220
-0.000234
-0.000241
-0.000231
-0.000223
-0.000226
-0.000210
-0.000228
-0.000210
-0.000234
-0.000199
-0.000192
-0.000215
-0.000218
-0.000213
-0.000218
-0.000189
-0.000210
-0.000210
-0.000207
-0.000218
-0.000247
-0.000247
-0.000231
-0.000197
-0.000163
-0.000150
-0.000121
-0.000116
-0.000165
-0.000165
-0.000176
-0.000189
-0.000213
-0.000241
-0.000297
-0.000320
-0.000352
-0.000352
-0.000357
-0.000386
-0.000370
-0.000357
-0.000302
-0.000312
-0.000291
-0.000268
-0.000265
-0.000304
-0.000318
-0.000318
-0.000325
-0.000278
-0.000249
-0.000210
-0.000189
-0.000134
-0.000121
-0.000116
-0.000126
-0.000184
-0.000186
-0.000234
-0.000231
-0.000184
-0.000223
-0.000210
-0.000205
-0.000228
-0.000213
-0.000205
-0.000165
-0.000150
-0.000147
-0.000100
-0.000136
-0.000142
-0.000218
-0.000189
-0.000186
-0.000205
-0.000207
-0.000220
-0.000286
-0.000291
-0.000294
-0.000302
-0.000260
-0.000228
-0.000207
-0.000205
-0.000241
-0.000228
-0.000223
-0.000268
-0.000281
-0.000318
-0.000370
-0.000349
-0.000378
-0.000375
-0.000339
-0.000318
-0.000328
-0.000281
-0.000260
-0.000257
-0.000228
-0.000207
-0.000213
-0.000160
-0.000168
-0.000118
-0.000136
-0.000160
-0.000189
-0.000215
-0.000239
-0.000213
-0.000215
-0.000197
-0.000168
-0.000165
-0.000199
-0.000181
-0.000173
-0.000194
-0.000231
-0.000236
-0.000247
-0.000278
-0.000315
-0.000336
-0.000323
-0.000318
-0.000318
-0.000276
-0.000239
-0.000210
-0.000207
-0.000192
-0.000163
-0.000134
-0.000136
-0.000126
-0.000118
-0.000121
-0.000144
-0.000134
-0.000144
-0.000176
-0.000205
-0.000184
-0.000189
-0.000168
-0.000155
-0.000160
-0.000205
-0.000226
-0.000220
-0.000207
-0.000215
-0.000163
-0.000168
-0.000165
-0.000123
-0.000116
-0.000129
-0.000136
-0.000131
-0.000139
-0.000131
-0.000134
-0.000142
-0.000165
-0.000189
-0.000205
-0.000252
-0.000239
-0.000231
-0.000234
-0.000231
-0.000255
-0.000268
-0.000299
-0.000331
-0.000336
-0.000333
-0.000325
-0.000336
-0.000307
-0.000273
-0.000234
-0.000202
-0.000186
-0.000168
-0.000134
-0.000150
-0.000192
-0.000202
-0.000184
-0.000202
-0.000231
-0.000231
-0.000252
-0.000304
-0.000270
-0.000231
-0.000184
-0.000147
-0.000116
-0.000123
-0.000100
-0.000092
-0.000126
-0.000118
-0.000087
-0.000118
-0.000095
-0.000116
-0.000150
-0.000176
-0.000139
-0.000176
-0.000199
-0.000176
-0.000189
-0.000205
-0.000252
-0.000205
-0.000160
-0.000165
-0.000163
-0.000126
-0.000123
-0.000152
-0.000139
-0.000165
-0.000184
-0.000155
-0.000184
-0.000176
-0.000215
-0.000228
-0.000215
-0.000213
-0.000168
-0.000134
-0.000102
-0.000068
-0.000068
-0.000123
-0.000095
-0.000079
-0.000081
-0.000110
-0.000121
-0.000152
-0.000160
-0.000144
-0.000197
-0.000220
-0.000207
-0.000165
-0.000121
-0.000105
-0.000076
-0.000123
-0.000178
-0.000223
-0.000223
-0.000210
-0.000184
-0.000136
-0.000131
-0.000121
-0.000144
-0.000171
-0.000197
-0.000181
-0.000147
-0.000139
-0.000121
-0.000084
-0.000110
-0.000147
-0.000181
-0.000236
-0.000273
-0.000323
-0.000291
-0.000234
-0.000163
-0.000142
-0.000110
-0.000160
-0.000150
-0.000171
-0.000184
-0.000184
-0.000213
-0.000215
-0.000163
-0.000116
-0.000087
-0.000095
-0.000071
-0.000087
-0.000105
-0.000136
-0.000129
-0.000113
-0.000074
-0.000092
-0.000081
-0.000079
-0.000084
-0.000074
-0.000063
-0.000042
-0.000034
-0.000087
-0.000087
-0.000087
-0.000084
-0.000097
-0.000063
-0.000095
-0.000142
-0.000163
-0.000152
-0.000152
-0.000163
-0.000178
-0.000152
-0.000176
-0.000178
-0.000186
-0.000186
-0.000163
-0.000220
-0.000241
-0.000186
-0.000207
-0.000181
-0.000136
-0.000100
-0.000116
-0.000126
-0.000092
-0.000084
-0.000076
-0.000063
-0.000016
-0.000037
-0.000053
-0.000037
-0.000081
-0.000076
-0.000076
-0.000105
-0.000113
-0.000087
-0.000074
-0.000084
-0.000042
-0.000034
-0.000087
-0.000087
-0.000097
-0.000108
-0.000071
-0.000053
-0.000018
-0.000005
-0.000032
-0.000018
-0.000042
-0.000026
0.000010
-0.000026
-0.000029
-0.000037
-0.000079
-0.000121
-0.000118
-0.000147
-0.000181
-0.000142
-0.000155
-0.000092
-0.000102
-0.000058
-0.000021
-0.000047
-0.000037
-0.000045
-0.000092
-0.000110
-0.000102
-0.000100
-0.000079
-0.000084
-0.000071
-0.000058
-0.000037
-0.000026
-0.000110
-0.000129
-0.000171
-0.000173
-0.000241
-0.000239
-0.000205
-0.000163
-0.000176
-0.000123
-0.000123
-0.000097
-0.000063
-0.000074
-0.000055
-0.000039
-0.000084
-0.000079
-0.000097
-0.000105
-0.000121
-0.000089
-0.000060
-0.000060
-0.000058
-0.000042
-0.000058
-0.000053
-0.000113
-0.000084
-0.000076
-0.000087
-0.000092
-0.000113
-0.000087
-0.000116
-0.000102
-0.000108
-0.000129
-0.000097
-0.000123
-0.000110
-0.000068
-0.000060
-0.000055
-0.000066
-0.000060
-0.000034
-0.000029
-0.000016
-0.000055
-0.000060
-0.000063
-0.000050
-0.000074
-0.000055
-0.000063
-0.000071
-0.000068
-0.000060
-0.000066
-0.000047
-0.000021
-0.000034
-0.000053
-0.000039
-0.000100
-0.000150
-0.000178
-0.000171
-0.000144
-0.000163
-0.000123
-0.000089
-0.000084
-0.000042
-0.000026
-0.000042
-0.000053
-0.000037
-0.000034
-0.000039
-0.000032
-0.000024
-0.000005
-0.000039
-0.000039
-0.000037
-0.000058
-0.000055
-0.000105
-0.000081
-0.000089
-0.000081
-0.000087
-0.000116
-0.000092
-0.000102
-0.000087
-0.000047
-0.000066
-0.000050
-0.000068
-0.000058
-0.000005
-0.000005
-0.000039
0.000021
-0.000003
-0.000016
-0.000039
-0.000055
-0.000058
-0.000058
-0.000092
-0.000053
-0.000032
-0.000053
-0.000026
0.000055
0.000016
0.000024
-0.000000
-0.000021
-0.000058
-0.000087
-0.000097
-0.000113
-0.000126
-0.000108
-0.000092
-0.000105
-0.000116
-0.000087
-0.000092
-0.000105
-0.000095
-0.000097
-0.000092
-0.000050
-0.000087
-0.000087
-0.000053
0.000013
-0.000024
-0.000032
-0.000018
-0.000018
-0.000039
0.000005
-0.000005
0.000010
-0.000013
-0.000021
-0.000081
-0.000074
-0.000058
-0.000105
-0.000100
-0.000042
-0.000060
-0.000032
0.000005
-0.000000
-0.000000
-0.000005
0.000026
-0.000008
-0.000034
-0.000024
-0.000021
-0.000076
-0.000071
-0.000060
-0.000081
-0.000047
-0.000050
-0.000079
-0.000113
-0.000076
-0.000123
-0.000084
-0.000047
-0.000058
-0.000045
0.000003
-0.000003
0.000018
-0.000008
0.000029
0.000005
0.000016
-0.000011
0.000008
-0.000011
-0.000045
-0.000063
-0.000131
-0.000134
-0.000116
-0.000129
-0.000110
-0.000118
-0.000087
-0.000081
-0.000079
-0.000087
-0.000110
-0.000181
-0.000160
-0.000155
-0.000142
-0.000147
-0.000092
-0.000097
-0.000060
-0.000045
-0.000013
-0.000016
0.000024
-0.000005
-0.000013
0.000013
-0.000021
-0.000037
-0.000032
-0.000055
-0.000081
-0.000110
-0.000074
-0.000074
-0.000063
-0.000050
-0.000045
-0.000066
-0.000058
-0.000058
-0.000045
-0.000045
-0.000024
-0.000011
0.000003
0.000024
-0.000005
-0.000029
-0.000032
-0.000066
-0.000084
-0.000089
-0.000087
-0.000089
-0.000063
-0.000055
-0.000024
-0.000050
-0.000016
-0.000016
0.000005
-0.000005
-0.000000
0.000031
0.000029
0.000045
0.000042
0.000050
0.000079
0.000026
0.000013
-0.000003
-0.000029
-0.000068
-0.000084
-0.000092
-0.000076
-0.000087
-0.000050
-0.000024
-0.000021
-0.000016
-0.000013
0.000003
0.000003
0.000005
0.000008
-0.000000
-0.000016
-0.000068
-0.000089
-0.000131
-0.000121
-0.000147
-0.000110
-0.000129
-0.000121
-0.000084
-0.000063
-0.000050
-0.000039
-0.000037
-0.000005
-0.000045
-0.000037
-0.000042
-0.000021
0.000003
0.000029
0.000037
0.000068
0.000058
0.000066
0.000047
0.000063
0.000060
0.000055
0.000037
-0.000000
-0.000021
-0.000039
-0.000060
-0.000034
-0.000089
-0.000095
-0.000055
-0.000045
-0.000063
-0.000016
-0.000032
-0.000032
-0.000029
-0.000032
-0.000029
-0.000029
-0.000087
-0.000097
-0.000060
-0.000074
-0.000050
-0.000053
-0.000045
-0.000029
-0.000105
-0.000116
-0.000102
-0.000097
-0.000116
-0.000063
-0.000037
-0.000024
-0.000018
-0.000008
0.000018
0.000013
0.000021
0.000066
0.000089
0.000097
0.000071
0.000052
0.000047
0.000037
-0.000005
-0.000013
-0.000013
-0.000039
-0.000039
0.000010
0.000021
0.000010
-0.000005
-0.000008
-0.000018
-0.000011
0.000008
0.000024
-0.000011
-0.000008
-0.000021
-0.000021
-0.000024
0.000024
0.000026
-0.000008
-0.000047
-0.000113
-0.000163
-0.000136
-0.000105
-0.000068
-0.000037
-0.000008
0.000008
0.000039
0.000050
0.000094
0.000050
0.000026
0.000031
0.000013
0.000031
0.000066
0.000071
0.000100
0.000060
0.000076
0.000076
0.000058
0.000058
0.000039
-0.000013
0.000003
-0.000039
-0.000021
-0.000000
0.000042
0.000034
0.000081
0.000092
0.000102
0.000121
0.000118
0.000113
0.000108
0.000113
0.000102
0.000050
0.000055
0.000081
0.000097
0.000118
0.000131
0.000113
0.000076
0.000047
0.000026
-0.000008
-0.000013
-0.000011
0.000026
0.000005
0.000039
0.000029
0.000013
0.000045
0.000045
0.000016
0.000024
0.000047
0.000050
0.000024
0.000042
0.000031
0.000076
0.000076
0.000108
0.000076
0.000063
0.000047
0.000039
0.000026
0.000026
0.000010
0.000039
0.000029
0.000037
0.000034
0.000102
0.000084
0.000100
0.000121
0.000152
0.000123
0.000092
0.000081
0.000063
0.000060
0.000045
0.000071
0.000084
0.000076
0.000115
0.000079
0.000068
0.000079
0.000058
0.000066
0.000081
0.000047
0.000094
0.000084
0.000068
0.000058
0.000052
0.000079
0.000084
0.000052
0.000010
-0.000000
0.000026
0.000010
0.000013
0.000003
-0.000008
0.000003
0.000008
-0.000011
0.000042
-0.000000
0.000003
0.000005
-0.000011
0.000029
0.000060
0.000081
0.000076
0.000084
0.000102
0.000121
0.000142
0.000126
0.000136
0.000058
0.000013
0.000029
0.000013
0.000008
0.000016
0.000031
0.000029
-0.000003
0.000018
0.000039
0.000026
0.000018
0.000026
-0.000011
0.000018
0.000031
0.000045
0.000024
-0.000000
-0.000039
-0.000024
-0.000045
-0.000034
-0.000032
-0.000016
0.000013
-0.000000
-0.000016
0.000005
-0.000018
-0.000016
-0.000026
-0.000037
-0.000034
-0.000018
0.000003
0.000005
-0.000016
0.000010
-0.000016
-0.000029
-0.000011
0.000024
0.000034
0.000039
0.000031
0.000037
0.000034
0.000034
0.000050
0.000060
0.000034
0.000037
0.000021
0.000021
0.000045
-0.000000
-0.000024
-0.000018
-0.000026
0.000010
-0.000008
-0.000011
0.000008
0.000055
0.000029
0.000024
0.000010
0.000034
0.000024
0.000026
0.000047
0.000079
0.000034
0.000003
-0.000008
-0.000024
-0.000058
-0.000024
-0.000032
-0.000042
-0.000021
0.000010
0.000026
0.000037
0.000013
-0.000018
-0.000018
-0.000018
-0.000024
-0.000021
-0.000016
0.000016
0.000010
0.000018
0.000031
0.000052
0.000047
0.000092
0.000094
0.000079
0.000068
0.000089
0.000076
0.000084
0.000076
0.000073
0.000081
0.000094
0.000081
0.000034
0.000058
0.000055
0.000026
0.000024
0.000021
0.000034
0.000029
0.000087
0.000097
0.000089
0.000037
0.000058
0.000010
0.000042
0.000047
0.000071
0.000010
0.000010
-0.000029
-0.000068
-0.000037
0.000013
0.000031
0.000066
0.000105
0.000108
0.000063
0.000081
0.000073
0.000018
0.000021
0.000037
0.000026
0.000034
0.000055
0.000060
0.000060
0.000039
0.000029
0.000031
0.000018
0.000081
0.000031
0.000037
0.000058
0.000068
0.000018
0.000050
0.000050
0.000047
0.000037
0.000081
0.000047
0.000068
0.000071
0.000100
0.000026
0.000039
0.000024
-0.000008
0.000016
0.000031
0.000016
0.000031
0.000039
0.000063
0.000055
0.000060
0.000079
0.000060
0.000026
0.000047
-0.000000
0.000021
-0.000016
-0.000003
-0.000000
0.000058
0.000021
0.000021
0.000039
0.000055
0.000029
0.000052
0.000034
0.000045
0.000031
0.000034
0.000063
0.000073
0.000079
0.000094
0.000102
0.000092
0.000079
0.000073
0.000039
0.000034
0.000026
0.000018
0.000039
0.000060
0.000068
0.000087
0.000123
0.000118
0.000100
0.000079
0.000037
0.000068
0.000016
0.000058
0.000034
0.000013
0.000029
0.000018
0.000008
0.000021
0.000031
0.000052
0.000094
0.000058
0.000021
0.000021
0.000021
0.000047
0.000031
0.000066
0.000063
0.000079
0.000084
0.000097
0.000076
0.000066
0.000055
0.000034
0.000026
0.000042
0.000042
0.000055
0.000037
0.000060
0.000042
0.000060
0.000094
0.000100
0.000102
0.000108
0.000142
0.000147
0.000108
0.000136
0.000142
0.000131
0.000113
0.000081
0.000029
0.000018
0.000010
0.000045
0.000050
0.000050
0.000055
0.000050
0.000045
0.000052
0.000094
0.000113
0.000110
0.000157
0.000123
0.000134
0.000142
0.000134
0.000131
0.000129
0.000102
0.000136
0.000136
0.000126
0.000121
0.000126
0.000100
0.000089
0.000079
0.000076
0.000047
0.000003
0.000024
0.000050
0.000039
0.000068
0.000073
0.000087
0.000121
0.000126
0.000094
0.000076
0.000094
0.000097
0.000045
0.000102
0.000084
0.000068
0.000047
0.000034
-0.000005
-0.000013
-0.000005
-0.000013
-0.000013
0.000008
0.000037
0.000037
0.000042
0.000066
0.000058
0.000100
0.000092
0.000105
0.000131
0.000152
0.000110
0.000105
0.000102
0.000113
0.000105
0.000092
0.000115
0.000113
0.000039
0.000068
0.000055
0.000034
0.000042
0.000058
0.000076
0.000084
0.000115
0.000155
0.000157
0.000168
0.000170
0.000157
0.000126
0.000113
0.000094
0.000060
0.000060
0.000079
0.000042
0.000079
0.000042
0.000039
0.000029
0.000024
-0.000013
0.000034
0.000008
0.000021
0.000031
0.000052
0.000110
0.000092
0.000084
0.000081
0.000055
0.000052
0.000066
0.000110
0.000031
0.000058
0.000066
0.000031
0.000013
0.000021
0.000055
0.000063
0.000066
0.000084
0.000089
0.000102
0.000084
0.000073
0.000052
0.000076
0.000060
0.000092
0.000149
0.000129
0.000108
0.000139
0.000108
0.000060
0.000097
0.000066
0.000034
0.000052
0.000016
0.000010
0.000010
-0.000018
0.000003
-0.000005
-0.000003
0.000034
0.000092
0.000076
0.000113
0.000144
0.000097
0.000121
0.000105
0.000073
0.000079
0.000094
0.000084
0.000079
0.000079
0.000073
0.000050
0.000055
0.000052
0.000050
0.000034
0.000066
0.000068
0.000076
0.000081
0.000105
0.000089
0.000079
0.000129
0.000136
0.000134
0.000147
0.000121
0.000147
0.000081
0.000079
0.000084
0.000092
0.000110
0.000100
0.000089
0.000121
0.000079
0.000108
0.000115
0.000113
0.000060
0.000045
0.000045
0.000071
0.000079
0.000110
0.000123
0.000123
0.000142
0.000194
0.000189
0.000191
0.000178
0.000139
0.000108
0.000123
0.000087
0.000047
0.000055
0.000066
0.000031
0.000031
0.000073
0.000079
0.000089
0.000094
0.000108
0.000100
0.000084
0.000105
0.000108
0.000126
0.000110
0.000123
0.000094
0.000131
0.000142
0.000094
0.000136
0.000123
0.000118
0.000105
0.000097
0.000123
0.000097
0.000092
0.000087
0.000076
0.000084
0.000081
0.000121
0.000121
0.000115
0.000118
0.000094
0.000131
0.000131
0.000129
0.000157
0.000160
0.000121
0.000126
0.000134
0.000165
0.000129
0.000129
0.000155
0.000147
0.000139
0.000155
0.000097
0.000100
0.000118
0.000110
0.000110
0.000144
0.000113
0.000131
0.000129
0.000149
0.000102
0.000123
0.000118
0.000100
0.000100
0.000102
0.000105
0.000076
0.000084
0.000097
0.000092
0.000105
0.000081
0.000076
0.000031
0.000047
-0.000005
0.000003
0.000008
0.000037
0.000073
0.000102
0.000131
0.000142
0.000134
0.000131
0.000142
0.000126
0.000110
0.000118
0.000094
0.000084
0.000097
0.000089
0.000076
0.000084
0.000037
0.000081
0.000047
0.000029
0.000029
0.000024
0.000050
0.000100
0.000068
0.000108
0.000097
0.000121
0.000115
0.000126
0.000097
0.000105
0.000115
0.000100
0.000087
0.000066
0.000052
0.000052
0.000073
0.000073
0.000094
0.000102
0.000100
0.000136
0.000139
0.000160
0.000163
0.000170
0.000139
0.000173
0.000152
0.000147
0.000197
0.000147
0.000134
0.000131
0.000113
0.000079
0.000073
0.000094
0.000089
0.000100
0.000081
0.000073
0.000055
0.000026
0.000050
0.000087
0.000066
0.000092
0.000108
0.000113
0.000118
0.000126
0.000100
0.000094
0.000110
0.000110
0.000144
0.000134
0.000110
0.000100
0.000055
0.000026
-0.000000
0.000037
0.000058
0.000089
0.000087
0.000121
0.000102
0.000126
0.000118
0.000110
0.000087
0.000071
0.000066
0.000081
0.000050
0.000100
0.000066
0.000052
0.000092
0.000087
0.000102
0.000087
0.000073
0.000079
0.000084
0.000126
0.000113
0.000123
0.000126
0.000165
0.000097
0.000118
0.000126
0.000105
0.000126
0.000149
0.000160
0.000170
0.000186
0.000194
0.000149
0.000118
0.000094
0.000084
0.000050
0.000055
0.000055
0.000052
0.000084
0.000089
0.000060
0.000063
0.000045
0.000068
0.000087
0.000108
0.000123
0.000160
0.000165
0.000157
0.000123
0.000134
0.000118
0.000113
0.000105
0.000102
0.000123
0.000155
0.000160
0.000142
0.000131
0.000136
0.000102
0.000100
0.000115
0.000123
0.000136
0.000157
0.000121
0.000163
0.000105
0.000079
0.000089
0.000105
0.000097
0.000152
0.000160
0.000176
0.000149
0.000152
0.000149
0.000136
0.000073
0.000108
0.000115
0.000100
0.000108
0.000118
0.000136
0.000144
0.000084
0.000097
0.000142
0.000102
0.000100
0.000139
0.000068
0.000068
0.000073
0.000094
0.000118
0.000144
0.000115
0.000129
0.000134
0.000100
0.000129
0.000165
0.000131
0.000155
0.000121
0.000157
0.000163
0.000144
0.000123
0.000142
0.000123
0.000134
0.000131
0.000144
0.000115
0.000134
0.000129
0.000110
0.000136
0.000149
0.000152
0.000173
0.000129
0.000094
0.000084
0.000100
0.000094
0.000121
0.000081
0.000094
0.000079
0.000066
0.000092
0.000147
0.000129
0.000149
0.000147
0.000139
0.000126
0.000121
0.000139
0.000110
0.000087
0.000076
0.000079
0.000068
0.000052
0.000052
0.000052
0.000089
0.000084
0.000094
0.000100
0.000126
0.000102
0.000136
0.000115
0.000092
0.000079
0.000102
0.000094
0.000108
0.000071
0.000094
0.000076
0.000081
0.000092
0.000118
0.000105
0.000076
0.000042
0.000055
0.000042
0.000045
0.000010
0.000039
0.000042
0.000026
0.000055
0.000089
0.000097
0.000113
0.000110
0.000121
0.000113
0.000123
0.000136
0.000157
0.000149
0.000147
0.000123
0.000126
0.000123
0.000115
0.000139
0.000129
0.000113
0.000144
0.000118
0.000136
0.000147
0.000131
0.000115
0.000170
0.000131
0.000126
0.000157
0.000149
0.000165
0.000186
0.000170
0.000170
0.000155
0.000149
0.000144
0.000142
0.000163
0.000144
0.000108
0.000118
0.000087
0.000081
0.000081
0.000097
0.000089
0.000100
0.000113
0.000108
0.000102
0.000115
0.000144
0.000123
0.000142
0.000118
0.000123
0.000165
0.000129
0.000131
0.000147
0.000144
0.000139
0.000113
0.000097
0.000089
0.000115
0.000102
0.000121
0.000126
0.000115
0.000110
0.000113
0.000121
0.000113
0.000115
0.000129
0.000123
0.000131
0.000149
0.000134
0.000123
0.000136
0.000100
0.000081
0.000108
0.000087
0.000076
0.000076
0.000084
0.000034
0.000029
0.000066
0.000068
0.000058
0.000068
0.000034
0.000042
0.000050
0.000071
0.000081
0.000121
0.000139
0.000155
0.000160
0.000160
0.000144
0.000126
0.000092
0.000121
0.000073
0.000097
0.000102
0.000092
0.000110
0.000126
0.000129
0.000131
0.000129
0.000131
0.000100
0.000105
0.000068
0.000073
0.000052
0.000063
0.000108
0.000123
0.000113
0.000134
0.000139
0.000144
0.000110
0.000149
0.000089
0.000118
0.000113
0.000139
0.000134
0.000178
0.000186
0.000149
0.000157
0.000173
0.000115
0.000118
0.000089
0.000105
0.000118
0.000084
0.000092
0.000071
0.000089
0.000094
0.000121
0.000136
0.000134
0.000147
0.000134
0.000139
0.000113
0.000123
0.000126
0.000131
0.000126
0.000131
0.000165
0.000165
0.000131
0.000176
0.000152
0.000147
0.000147
0.000115
0.000113
0.000118
0.000126
0.000149
0.000126
0.000165
0.000163
0.000157
0.000126
0.000142
0.000139
0.000123
0.000165
0.000126
0.000136
0.000152
0.000131
0.000123
0.000121
0.000123
0.000115
0.000115
0.000105
0.000118
0.000052
0.000068
0.000052
0.000073
0.000089
0.000115
0.000136
0.000152
0.000160
0.000160
0.000142
0.000144
0.000139
0.000102
0.000076
0.000126
0.000100
0.000123
0.000142
0.000144
0.000113
0.000121
0.000118
0.000136
0.000155
0.000139
0.000136
0.000149
0.000144
0.000126
0.000063
0.000097
0.000110
0.000131
0.000121
0.000194
0.000160
0.000155
0.000194
0.000184
0.000157
0.000155
0.000134
0.000147
0.000139
0.000176
0.000152
0.000152
0.000178
0.000155
0.000131
0.000152
0.000184
0.000160
0.000160
0.000170
0.000173
0.000181
0.000147
0.000165
0.000123
0.000115
0.000144
0.000092
0.000076
0.000113
0.000092
0.000084
0.000100
0.000134
0.000152
0.000155
0.000155
0.000152
0.000163
0.000205
0.000170
0.000168
0.000157
0.000215
0.000155
0.000194
0.000212
0.000160
0.000147
0.000176
0.000157
0.000165
0.000123
0.000142
0.000118
0.000071
0.000081
0.000136
0.000113
0.000155
0.000142
0.000163
0.000152
0.000142
0.000113
0.000139
0.000178
0.000131
0.000157
0.000149
0.000136
0.000142
0.000102
0.000118
0.000097
0.000089
0.000076
0.000134
0.000094
0.000129
0.000108
0.000123
0.000113
0.000163
0.000126
0.000126
0.000152
0.000160
0.000144
0.000178
0.000170
0.000178
0.000178
0.000173
0.000147
0.000155
0.000157
0.000121
0.000134
0.000131
0.000131
0.000110
0.000094
0.000139
0.000170
0.000142
0.000126
0.000142
0.000108
0.000129
0.000131
0.000144
0.000147
0.000170
0.000170
0.000191
0.000197
0.000197
0.000165
0.000184
0.000165
0.000163
0.000142
0.000165
0.000129
0.000126
0.000131
0.000110
0.000047
0.000071
0.000094
0.000097
0.000113
0.000131
0.000160
0.000110
0.000149
0.000152
0.000173
0.000223
0.000178
0.000139
0.000184
0.000178
0.000134
0.000105
0.000102
0.000105
0.000079
0.000121
0.000152
0.000163
0.000131
0.000176
0.000152
0.000136
0.000136
0.000139
0.000118
0.000113
0.000110
0.000110
0.000100
0.000126
0.000142
0.000176
0.000178
0.000184
0.000170
0.000186
0.000181
0.000163
0.000163
0.000178
0.000152
0.000139
0.000157
0.000186
0.000134
0.000147
0.000123
0.000136
0.000126
0.000163
0.000165
0.000186
0.000202
0.000184
0.000149
0.000149
0.000142
0.000097
0.000105
0.000123
0.000113
0.000092
0.000139
0.000160
0.000144
0.000191
0.000191
0.000157
0.000131
0.000155
0.000115
0.000115
0.000115
0.000118
0.000108
0.000136
0.000129
0.000170
0.000155
0.000189
0.000173
0.000181
0.000191
0.000233
0.000170
0.000207
0.000228
0.000176
0.000173
0.000181
0.000186
0.000131
0.000149
0.000144
0.000147
0.000157
0.000165
0.000155
0.000144
0.000126
0.000129
0.000134
0.000115
0.000136
0.000100
0.000108
0.000123
0.000131
0.000131
0.000129
0.000155
0.000139
0.000134
0.000147
0.000129
0.000139
0.000157
0.000181
0.000157
0.000165
0.000173
0.000149
0.000165
0.000181
0.000160
0.000194
0.000176
0.000165
0.000186
0.000194
0.000168
0.000147
0.000163
0.000139
0.000097
0.000118
0.000126
0.000110
0.000105
0.000118
0.000113
0.000105
0.000113
0.000118
0.000092
0.000134
0.000113
0.000134
0.000136
0.000147
0.000142
0.000142
0.000147
0.000134
0.000155
0.000136
0.000144
0.000134
0.000102
0.000123
0.000115
0.000102
0.000139
0.000144
0.000173
0.000181
0.000178
0.000194
0.000173
0.000194
0.000152
0.000194
0.000194
0.000184
0.000181
0.000194
0.000160
0.000173
0.000165
0.000181
0.000170
0.000136
0.000157
0.000181
0.000136
0.000184
0.000160
0.000168
0.000168
0.000170
0.000165
0.000134
0.000149
0.000173
0.000152
0.000165
0.000191
0.000176
0.000152
0.000144
0.000136
0.000136
0.000165
0.000194
0.000160
0.000152
0.000131
0.000102
0.000066
0.000097
0.000113
0.000100
0.000121
0.000142
0.000136
0.000157
0.000186
0.000199
0.000199
0.000202
0.000173
0.000168
0.000144
0.000142
0.000136
0.000105
0.000139
0.000123
0.000123
0.000173
0.000170
0.000160
0.000170
0.000181
0.000149
0.000189
0.000186
0.000178
0.000184
0.000147
0.000121
0.000113
0.000060
0.000060
0.000052
0.000113
0.000105
0.000121
0.000139
0.000170
0.000163
0.000155
0.000181
0.000189
0.000126
0.000142
0.000144
0.000149
0.000134
0.000142
0.000149
0.000144
0.000131
0.000144
0.000113
0.000110
0.000155
0.000165
0.000160
0.000194
0.000181
0.000152
0.000115
0.000118
0.000100
0.000087
0.000129
0.000134
0.000084
0.000123
0.000108
0.000110
0.000108
0.000155
0.000134
0.000134
0.000149
0.000178
0.000168
0.000178
0.000152
0.000149
0.000147
0.000152
0.000157
0.000134
0.000136
0.000134
0.000097
0.000147
0.000144
0.000134
0.000142
0.000136
0.000163
0.000173
0.000170
0.000189
0.000184
0.000168
0.000136
0.000134
0.000118
0.000165
0.000155
0.000165
0.000163
0.000168
0.000134
0.000118
0.000126
0.000092
0.000131
0.000115
0.000129
0.000100
0.000079
0.000129
0.000097
0.000087
0.000087
0.000108
0.000131
0.000181
0.000142
0.000160
0.000170
0.000160
0.000163
0.000176
0.000178
0.000194
0.000160
0.000160
0.000170
0.000155
0.000129
0.000147
0.000142
0.000147
0.000129
0.000134
0.000155
0.000186
0.000155
0.000163
0.000178
0.000152
0.000113
0.000144
0.000121
0.000129
0.000152
0.000147
0.000155
0.000165
0.000144
0.000173
0.000173
0.000170
0.000144
0.000160
0.000165
0.000199
0.000170
0.000170
0.000163
0.000176
0.000163
0.000194
0.000149
0.000176
0.000144
0.000139
0.000121
0.000094
0.000102
0.000110
0.000081
0.000123
0.000102
0.000147
0.000131
0.000123
0.000152
0.000157
0.000163
0.000205
0.000178
0.000191
0.000194
0.000186
0.000197
0.000189
0.000186
0.000194
0.000186
0.000178
0.000144
0.000152
0.000181
0.000184
0.000184
0.000210
0.000165
0.000136
0.000163
0.000147
0.000149
0.000173
0.000178
0.000189
0.000176
0.000199
0.000155
0.000152
0.000149
0.000131
0.000147
0.000155
0.000173
0.000152
0.000155
0.000170
0.000131
0.000147
0.000131
0.000168
0.000155
0.000155
0.000131
0.000155
0.000118
0.000142
0.000118
0.000126
0.000121
0.000110
0.000087
0.000102
0.000118
0.000123
0.000149
0.000194
0.000165
0.000178
0.000215
0.000189
0.000186
0.000173
0.000136
0.000134
0.000102
0.000108
0.000094
0.000115
0.000129
0.000163
0.000147
0.000149
0.000142
0.000147
0.000121
0.000123
0.000087
0.000079
0.000113
0.000118
0.000121
0.000155
0.000163
0.000202
0.000181
0.000181
0.000170
0.000176
0.000178
0.000165
0.000152
0.000157
0.000157
0.000144
0.000110
0.000134
0.000087
0.000113
0.000097
0.000113
0.000097
0.000123
0.000121
0.000152
0.000152
0.000197
0.000163
0.000205
0.000215
0.000207
0.000181
0.000202
0.000202
0.000165
0.000157
0.000129
0.000105
0.000142
0.000113
0.000144
0.000168
0.000165
0.000186
0.000191
0.000173
0.000212
0.000215
0.000223
0.000231
0.000249
0.000191
0.000197
0.000157
0.000113
0.000094
0.000100
0.000121
0.000118
0.000134
0.000113
0.000110
0.000121
0.000110
0.000110
0.000147
0.000144
0.000144
0.000168
0.000173
0.000199
0.000170
0.000191
0.000168
0.000134
0.000139
0.000178
0.000152
0.000194
0.000210
0.000160
0.000136
0.000170
0.000139
0.000144
0.000129
0.000149
0.000142
0.000155
0.000207
0.000207
0.000199
0.000231
0.000244
0.000247
0.000231
0.000244
0.000205
0.000218
0.000194
0.000165
0.000139
0.000178
0.000123
0.000126
0.000142
0.000173
0.000144
0.000149
0.000173
0.000173
0.000131
0.000168
0.000160
0.000163
0.000191
0.000194
0.000202
0.000215
0.000220
0.000210
0.000223
0.000226
0.000197
0.000220
0.000184
0.000184
0.000155
0.000139
0.000149
0.000123
0.000110
0.000134
0.000147
0.000147
0.000155
0.000147
0.000142
0.000149
0.000139
0.000165
0.000152
0.000178
0.000157
0.000163
0.000149
0.000126
0.000105
0.000129
0.000105
0.000118
0.000131
0.000160
0.000168
0.000152
0.000142
0.000168
0.000129
0.000160
0.000160
0.000165
0.000184
0.000186
0.000184
0.000184
0.000194
0.000163
0.000205
0.000186
0.000191
0.000202
0.000176
0.000207
0.000186
0.000165
0.000189
0.000191
0.000157
0.000191
0.000178
0.000189
0.000178
0.000176
0.000191
0.000194
0.000176
0.000191
0.000194
0.000186
0.000186
0.000210
0.000178
0.000212
0.000228
0.000212
0.000231
0.000226
0.000197
0.000212
0.000223
0.000191
0.000181
0.000155
0.000115
0.000139
0.000149
0.000176
0.000134
0.000142
0.000173
0.000170
0.000184
0.000197
0.000207
0.000184
0.000184
0.000155
0.000136
0.000136
0.000110
0.000129
0.000160
0.000165
0.000163
0.000165
0.000152
0.000194
0.000157
0.000142
0.000160
0.000147
0.000115
0.000165
0.000184
0.000131
0.000157
0.000197
0.000181
0.000163
0.000131
0.000142
0.000126
0.000157
0.000155
0.000199
0.000181
0.000202
0.000191
0.000184
0.000197
0.000194
0.000147
0.000205
0.000170
0.000155
0.000163
0.000197
0.000189
0.000189
0.000197
0.000207
0.000189
0.000199
0.000205
0.000191
0.000176
0.000197
0.000168
0.000168
0.000157
0.000149
0.000155
0.000207
0.000191
0.000170
0.000189
0.000194
0.000194
0.000178
0.000189
0.000207
0.000170
0.000197
0.000197
0.000186
0.000178
0.000199
0.000202
0.000207
0.000210
0.000199
0.000149
0.000110
0.000084
0.000100
0.000108
0.000121
0.000123
0.000142
0.000129
0.000139
0.000126
0.000170
0.000160
0.000152
0.000170
0.000163
0.000176
0.000199
0.000244
0.000249
0.000254
0.000233
0.000210
0.000215
0.000173
0.000184
0.000144
0.000134
0.000152
0.000134
0.000136
0.000142
0.000136
0.000142
0.000144
0.000173
0.000170
0.000173
0.000194
0.000212
0.000233
0.000244
0.000228
0.000207
0.000186
0.000186
0.000194
0.000189
0.000205
0.000197
0.000173
0.000189
0.000147
0.000155
0.000163
0.000165
0.000155
0.000181
0.000202
0.000218
0.000226
0.000252
0.000239
0.000244
0.000189
0.000215
0.000189
0.000160
0.000176
0.000165
0.000181
0.000163
0.000144
0.000152
0.000157
0.000168
0.000139
0.000184
0.000191
0.000168
0.000189
0.000197
0.000155
0.000163
0.000165
0.000184
0.000178
0.000186
0.000178
0.000194
0.000170
0.000173
0.000160
0.000157
0.000144
0.000189
0.000165
0.000168
0.000149
0.000118
0.000102
0.000118
0.000105
0.000102
0.000073
0.000155
0.000144
0.000197
0.000212
0.000207
0.000191
0.000218
0.000218
0.000220
0.000233
0.000231
0.000210
0.000210
0.000191
0.000165
0.000178
0.000184
0.000194
0.000155
0.000163
0.000202
0.000168
0.000168
0.000194
0.000215
0.000202
0.000223
0.000199
0.000184
0.000210
0.000202
0.000176
0.000189
0.000186
0.000202
0.000207
0.000197
0.000231
0.000184
0.000163
0.000218
0.000191
0.000152
0.000113
0.000163
0.000121
0.000123
0.000144
0.000134
0.000118
0.000152
0.000157
0.000191
0.000220
0.000210
0.000207
0.000228
0.000239
0.000202
0.000212
0.000241
0.000226
0.000191
0.000218
0.000197
0.000136
0.000134
0.000152
0.000181
0.000165
0.000176
0.000181
0.000197
0.000210
0.000218
0.000218
0.000207
0.000233
0.000233
0.000215
0.000260
0.000228
0.000218
0.000231
0.000207
0.000197
0.000194
0.000191
0.000184
0.000176
0.000163
0.000160
0.000147
0.000110
0.000144
0.000126
0.000131
0.000168
0.000181
0.000176
0.000194
0.000215
0.000210
0.000244
0.000236
0.000231
0.000210
0.000239
0.000220
0.000210
0.000218
0.000218
0.000165
0.000165
0.000160
0.000139
0.000176
0.000189
0.000199
0.000202
0.000205
0.000220
0.000236
0.000228
0.000257
0.000218
0.000244
0.000254
0.000220
0.000202
0.000212
0.000197
0.000199
0.000189
0.000155
0.000165
0.000184
0.000178
0.000176
0.000136
0.000163
0.000142
0.000181
0.000170
0.000194
0.000149
0.000165
0.000181
0.000157
0.000152
0.000152
0.000176
0.000165
0.000168
0.000168
0.000165
0.000173
0.000191
0.000210
0.000197
0.000207
0.000207
0.000210
0.000165
0.000199
0.000194
0.000191
0.000228
0.000197
0.000199
0.000223
0.000178
0.000207
0.000215
0.000210
0.000223
0.000218
0.000239
0.000223
0.000220
0.000220
0.000197
0.000176
0.000176
0.000181
0.000218
0.000194
0.000170
0.000149
0.000144
0.000157
0.000165
0.000199
0.000197
0.000207
0.000205
0.000205
0.000244
0.000247
0.000220
0.000247
0.000239
0.000233
0.000191
0.000194
0.000186
0.000181
0.000147
0.000152
0.000152
0.000134
0.000110
0.000134
0.000102
0.000142
0.000123
0.000139
0.000168
0.000186
0.000194
0.000199
0.000186
0.000191
0.000199
0.000184
0.000168
0.000168
0.000199
0.000215
0.000181
0.000199
0.000186
0.000191
0.000157
0.000152
0.000168
0.000160
0.000173
0.000170
0.000165
0.000173
0.000163
0.000186
0.000149
0.000202
0.000155
0.000131
0.000181
0.000178
0.000165
0.000157
0.000168
0.000178
0.000157
0.000181
0.000199
0.000178
0.000176
0.000197
0.000173
0.000184
0.000173
0.000181
0.000170
0.000207
0.000205
0.000212
0.000205
0.000202
0.000181
0.000194
0.000191
0.000149
0.000184
0.000178
0.000194
0.000186
0.000186
0.000210
0.000189
0.000194
0.000202
0.000184
0.000170
0.000189
0.000178
0.000173
0.000186
0.000176
0.000186
0.000210
0.000184
0.000205
0.000176
0.000212
0.000202
0.000170
0.000152
0.000173
0.000147
0.000131
0.000144
0.000136
0.000139
0.000129
0.000139
0.000157
0.000139
0.000173
0.000149
0.000186
0.000176
0.000170
0.000184
0.000186
0.000178
0.000199
0.000226
0.000220
0.000212
0.000215
t0(sec) = 0.000000E+0
dt(sec) = 4.000000E-10
F2:INSP "
DESCRIPTOR_NAME    : WAVEDESC           
TEMPLATE_NAME      : LECROY_2_3         
COMM_TYPE          : word               
COMM_ORDER         : HIFIRST            
WAVE_DESCRIPTOR    : 346                
USER_TEXT          : 0                  
RES_DESC1          : 0                  
TRIGTIME_ARRAY     : 0                  
RIS_TIME_ARRAY     : 0                  
RES_ARRAY1         : 0                  
WAVE_ARRAY_1       : 10002              
WAVE_ARRAY_2       : 0                  
RES_ARRAY2         : 0                  
RES_ARRAY3         : 0                  
INSTRUMENT_NAME    : LECROYHDO6104      
INSTRUMENT_NUMBER  : 6308               
TRACE_LABEL        :                    
RESERVED1          : 5001               
RESERVED2          : 0                  
WAVE_ARRAY_COUNT   : 5001               
PNTS_PER_SCREEN    : 5000               
FIRST_VALID_PNT    : 0                  
LAST_VALID_PNT     : 5000               
FIRST_POINT        : 0                  
SPARSING_FACTOR    : 1                  
SEGMENT_INDEX      : 0                  
SUBARRAY_COUNT     : 1                  
SWEEPS_PER_ACQ     : 200                
POINTS_PER_PAIR    : 0                  
PAIR_OFFSET        : 0                  
VERTICAL_GAIN      : 2.6238e-006        
VERTICAL_OFFSET    : 4.2500e-002        
MAX_VALUE          : 3.2512e+004        
MIN_VALUE          : -2.5373e+004       
NOMINAL_BITS       : 16                 
NOM_SUBARRAY_COUNT : 1                  
HORIZ_INTERVAL     : 4.0000e-010        
HORIZ_OFFSET       : -2.00000000e-007   
PIXEL_OFFSET       : -2.00000000e-007   
VERTUNIT           : Unit Name = V
HORUNIT            : Unit Name = S
HORIZ_UNCERTAINTY  : 1.0000e-012        
TRIGGER_TIME       : Date = APR 17, 2024, Time = 19:20:25.261639918
ACQ_DURATION       : 9.9991e+000        
RECORD_TYPE        : single_sweep       
PROCESSING_DONE    : no_processing      
RESERVED5          : 0                  
RIS_SWEEPS         : 1                  
TIMEBASE           : 200_ns/div         
VERT_COUPLING      : DC_50_Ohms         
PROBE_ATT          : 1.0000e+000        
FIXED_VERT_GAIN    : 20_mV/div          
BANDWIDTH_LIMIT    : off                
VERTICAL_VERNIER   : 1.0500e+000        
ACQ_VERT_OFFSET    : 0.0000e+000        
WAVE_SOURCE        : UNKNOWN            
"
0.001388
0.001406
0.001406
0.001375
0.001383
0.001404
0.001396
0.001393
0.001385
0.001375
0.001393
0.001398
0.001406
0.001401
0.001385
0.001385
0.001396
0.001393
0.001414
0.001404
0.001398
0.001406
0.001419
0.001388
0.001383
0.001401
0.001396
0.001385
0.001383
0.001375
0.001380
0.001383
0.001391
0.001393
0.001391
0.001372
0.001404
0.001362
0.001391
0.001404
0.001372
0.001419
0.001364
0.001393
0.001412
0.001385
0.001398
0.001370
0.001388
0.001404
0.001388
0.001383
0.001391
0.001370
0.001393
0.001388
0.001375
0.001385
0.001396
0.001375
0.001383
0.001377
0.001404
0.001412
0.001409
0.001377
0.001391
0.001375
0.001375
0.001377
0.001354
0.001364
0.001385
0.001388
0.001372
0.001377
0.001370
0.001367
0.001377
0.001372
0.001398
0.001404
0.001398
0.001380
0.001401
0.001380
0.001383
0.001398
0.001377
0.001393
0.001391
0.001383
0.001375
0.001391
0.001377
0.001372
0.001393
0.001393
0.001406
0.001412
0.001383
0.001406
0.001401
0.001359
0.001385
0.001380
0.001364
0.001383
0.001401
0.001375
0.001398
0.001383
0.001393
0.001398
0.001370
0.001404
0.001393
0.001388
0.001393
0.001406
0.001414
0.001393
0.001406
0.001393
0.001406
0.001409
0.001380
0.001391
0.001433
0.001396
0.001380
0.001419
0.001391
0.001391
0.001401
0.001388
0.001385
0.001398
0.001391
0.001380
0.001375
0.001396
0.001391
0.001388
0.001364
0.001367
0.001370
0.001372
0.001377
0.001383
0.001367
0.001391
0.001375
0.001349
0.001367
0.001359
0.001383
0.001359
0.001349
0.001372
0.001383
0.001396
0.001401
0.001375
0.001351
0.001372
0.001367
0.001393
0.001401
0.001377
0.001364
0.001398
0.001391
0.001396
0.001377
0.001396
0.001385
0.001414
0.001396
0.001372
0.001396
0.001401
0.001396
0.001398
0.001393
0.001414
0.001364
0.001401
0.001393
0.001406
0.001393
0.001393
0.001393
0.001388
0.001364
0.001388
0.001383
0.001385
0.001372
0.001396
0.001391
0.001380
0.001385
0.001375
0.001372
0.001391
0.001385
0.001404
0.001375
0.001398
0.001396
0.001385
0.001409
0.001406
0.001383
0.001396
0.001398
0.001383
0.001393
0.001388
0.001393
0.001404
0.001375
0.001404
0.001380
0.001372
0.001380
0.001354
0.001391
0.001409
0.001380
0.001383
0.001409
0.001398
0.001404
0.001383
0.001404
0.001380
0.001367
0.001404
0.001383
0.001385
0.001367
0.001419
0.001409
0.001391
0.001388
0.001393
0.001406
0.001388
0.001383
0.001398
0.001388
0.001401
0.001393
0.001404
0.001412
0.001377
0.001396
0.001398
0.001383
0.001398
0.001398
0.001396
0.001409
0.001393
0.001383
0.001396
0.001388
0.001383
0.001385
0.001380
0.001406
0.001398
0.001412
0.001401
0.001406
0.001396
0.001393
0.001414
0.001414
0.001385
0.001375
0.001388
0.001362
0.001388
0.001401
0.001383
0.001401
0.001404
0.001377
0.001383
0.001385
0.001404
0.001412
0.001414
0.001401
0.001393
0.001362
0.001393
0.001385
0.001401
0.001396
0.001375
0.001372
0.001380
0.001372
0.001393
0.001393
0.001388
0.001398
0.001385
0.001398
0.001364
0.001388
0.001380
0.001396
0.001383
0.001383
0.001388
0.001383
0.001385
0.001409
0.001375
0.001388
0.001380
0.001388
0.001412
0.001419
0.001396
0.001391
0.001383
0.001385
0.001383
0.001354
0.001367
0.001396
0.001364
0.001393
0.001396
0.001377
0.001383
0.001364
0.001385
0.001380
0.001383
0.001396
0.001404
0.001375
0.001383
0.001383
0.001409
0.001417
0.001388
0.001391
0.001372
0.001367
0.001372
0.001388
0.001391
0.001385
0.001406
0.001396
0.001419
0.001425
0.001388
0.001396
0.001398
0.001430
0.001393
0.001406
0.001396
0.001385
0.001385
0.001385
0.001375
0.001414
0.001377
0.001406
0.001388
0.001409
0.001396
0.001401
0.001375
0.001393
0.001409
0.001404
0.001401
0.001383
0.001401
0.001370
0.001377
0.001404
0.001393
0.001396
0.001398
0.001380
0.001409
0.001391
0.001372
0.001409
0.001401
0.001409
0.001401
0.001385
0.001385
0.001401
0.001370
0.001380
0.001372
0.001393
0.001391
0.001393
0.001401
0.001367
0.001385
0.001370
0.001377
0.001370
0.001393
0.001398
0.001401
0.001377
0.001396
0.001385
0.001359
0.001401
0.001346
0.001367
0.001396
0.001372
0.001393
0.001391
0.001380
0.001404
0.001414
0.001401
0.001438
0.001404
0.001385
0.001375
0.001333
0.001317
0.001351
0.001383
0.001422
0.001414
0.001422
0.001412
0.001385
0.001417
0.001396
0.001404
0.001404
0.001377
0.001388
0.001356
0.001362
0.001367
0.001398
0.001388
0.001393
0.001414
0.001370
0.001388
0.001393
0.001393
0.001433
0.001448
0.001440
0.001448
0.001422
0.001406
0.001375
0.001356
0.001367
0.001349
0.001359
0.001372
0.001375
0.001396
0.001422
0.001419
0.001467
0.001453
0.001443
0.001417
0.001417
0.001404
0.001391
0.001362
0.001383
0.001364
0.001393
0.001414
0.001419
0.001422
0.001422
0.001404
0.001351
0.001330
0.001330
0.001328
0.001375
0.001367
0.001333
0.001359
0.001359
0.001375
0.001433
0.001456
0.001430
0.001425
0.001383
0.001341
0.001341
0.001377
0.001398
0.001427
0.001433
0.001391
0.001443
0.001401
0.001446
0.001446
0.001406
0.001364
0.001359
0.001333
0.001341
0.001388
0.001404
0.001425
0.001419
0.001433
0.001417
0.001409
0.001419
0.001412
0.001398
0.001404
0.001370
0.001359
0.001362
0.001356
0.001372
0.001406
0.001440
0.001425
0.001425
0.001398
0.001417
0.001391
0.001380
0.001372
0.001351
0.001312
0.001309
0.001278
0.001209
0.001102
0.000981
0.000795
0.000359
-0.000404
-0.001490
-0.002852
-0.004479
-0.006268
-0.008053
-0.009472
-0.010668
-0.011849
-0.012870
-0.013625
-0.014216
-0.014738
-0.014893
-0.014987
-0.015221
-0.015564
-0.015853
-0.015798
-0.015570
-0.015276
-0.015048
-0.014806
-0.014659
-0.014512
-0.014300
-0.014163
-0.013898
-0.013465
-0.012901
-0.012432
-0.012224
-0.012072
-0.011752
-0.011340
-0.011062
-0.011028
-0.010910
-0.010668
-0.010448
-0.010314
-0.010081
-0.009852
-0.009750
-0.009782
-0.009774
-0.009485
-0.009320
-0.009496
-0.009556
-0.009312
-0.008800
-0.008496
-0.008467
-0.008323
-0.008226
-0.008328
-0.008386
-0.008142
-0.007879
-0.007879
-0.007837
-0.007753
-0.007850
-0.007955
-0.007898
-0.007685
-0.007383
-0.007176
-0.007223
-0.007355
-0.007145
-0.006790
-0.006630
-0.006683
-0.006796
-0.006809
-0.006701
-0.006696
-0.006604
-0.006502
-0.006633
-0.006874
-0.006686
-0.006274
-0.006048
-0.006053
-0.005925
-0.005922
-0.006379
-0.006840
-0.006759
-0.006473
-0.006326
-0.006166
-0.005988
-0.005728
-0.005515
-0.005423
-0.005313
-0.005321
-0.005563
-0.005859
-0.006061
-0.006148
-0.006253
-0.006389
-0.006347
-0.006337
-0.006310
-0.006158
-0.005817
-0.005526
-0.005395
-0.005164
-0.004977
-0.005012
-0.005067
-0.004762
-0.004384
-0.004303
-0.004484
-0.004605
-0.004799
-0.004975
-0.005004
-0.005017
-0.005130
-0.005158
-0.004993
-0.004718
-0.004649
-0.004676
-0.004581
-0.004584
-0.004768
-0.004712
-0.004484
-0.004484
-0.004699
-0.005009
-0.005043
-0.004770
-0.004497
-0.004566
-0.004731
-0.005022
-0.005300
-0.005200
-0.004891
-0.004566
-0.004387
-0.004361
-0.004377
-0.004426
-0.004453
-0.004371
-0.004135
-0.004164
-0.004429
-0.004476
-0.004295
-0.004214
-0.004285
-0.004392
-0.004337
-0.004169
-0.004098
-0.004075
-0.004280
-0.004440
-0.004363
-0.004316
-0.004398
-0.004379
-0.004190
-0.004193
-0.004206
-0.004030
-0.004088
-0.004217
-0.004148
-0.004028
-0.004028
-0.004028
-0.003634
-0.003319
-0.003351
-0.003582
-0.003755
-0.003828
-0.003941
-0.004085
-0.004104
-0.004093
-0.003999
-0.003983
-0.003983
-0.003957
-0.003826
-0.003760
-0.003773
-0.003833
-0.003797
-0.003576
-0.003403
-0.003458
-0.003655
-0.003752
-0.003603
-0.003382
-0.003403
-0.003519
-0.003618
-0.003705
-0.003631
-0.003605
-0.003708
-0.003812
-0.003896
-0.003805
-0.003545
-0.003364
-0.003380
-0.003542
-0.003781
-0.004038
-0.003917
-0.003571
-0.003353
-0.003214
-0.003170
-0.003201
-0.003322
-0.003422
-0.003487
-0.003508
-0.003571
-0.003731
-0.003739
-0.003542
-0.003275
-0.003183
-0.003094
-0.002996
-0.002996
-0.003101
-0.003101
-0.003125
-0.003338
-0.003482
-0.003351
-0.003075
-0.002970
-0.003070
-0.003149
-0.003112
-0.003078
-0.003112
-0.003088
-0.003138
-0.003330
-0.003526
-0.003474
-0.003303
-0.003290
-0.003248
-0.003261
-0.003437
-0.003684
-0.003571
-0.003264
-0.003222
-0.003301
-0.003238
-0.003154
-0.003204
-0.003322
-0.003424
-0.003411
-0.003235
-0.003101
-0.002962
-0.002787
-0.002784
-0.002789
-0.002716
-0.002716
-0.002716
-0.002818
-0.002989
-0.002996
-0.002978
-0.003044
-0.003073
-0.003038
-0.003012
-0.003067
-0.003109
-0.003115
-0.003067
-0.003059
-0.003080
-0.002954
-0.002787
-0.002860
-0.003054
-0.003065
-0.002960
-0.002897
-0.002784
-0.002621
-0.002401
-0.002217
-0.002094
-0.002162
-0.002380
-0.002713
-0.002860
-0.002826
-0.002739
-0.002603
-0.002480
-0.002569
-0.002892
-0.003062
-0.003080
-0.003078
-0.002981
-0.002855
-0.002710
-0.002577
-0.002477
-0.002417
-0.002522
-0.002503
-0.002367
-0.002304
-0.002304
-0.002398
-0.002619
-0.002710
-0.002595
-0.002519
-0.002627
-0.002784
-0.002724
-0.002498
-0.002288
-0.002262
-0.002409
-0.002745
-0.003078
-0.003141
-0.003049
-0.002850
-0.002773
-0.002965
-0.003146
-0.003083
-0.002957
-0.002907
-0.002792
-0.002745
-0.002800
-0.002710
-0.002582
-0.002776
-0.003028
-0.003025
-0.002910
-0.002889
-0.002787
-0.002705
-0.002760
-0.002721
-0.002487
-0.002267
-0.002233
-0.002199
-0.002275
-0.002480
-0.002661
-0.002684
-0.002687
-0.002692
-0.002553
-0.002411
-0.002511
-0.002682
-0.002600
-0.002427
-0.002424
-0.002676
-0.002787
-0.002587
-0.002264
-0.002049
-0.001926
-0.001973
-0.002117
-0.002094
-0.001947
-0.001986
-0.002272
-0.002569
-0.002676
-0.002645
-0.002556
-0.002440
-0.002487
-0.002495
-0.002333
-0.002191
-0.002146
-0.002123
-0.002144
-0.002270
-0.002314
-0.002320
-0.002443
-0.002527
-0.002606
-0.002655
-0.002590
-0.002487
-0.002403
-0.002320
-0.002267
-0.002267
-0.002212
-0.002207
-0.002238
-0.002215
-0.002217
-0.002225
-0.002385
-0.002440
-0.002264
-0.002047
-0.002178
-0.002367
-0.002191
-0.001997
-0.001894
-0.001845
-0.001745
-0.001766
-0.001921
-0.001968
-0.001965
-0.002070
-0.002131
-0.002241
-0.002445
-0.002487
-0.002317
-0.002259
-0.002241
-0.002099
-0.002062
-0.002120
-0.002070
-0.001955
-0.001832
-0.001879
-0.001926
-0.001976
-0.002052
-0.002010
-0.001842
-0.001682
-0.001656
-0.001635
-0.001685
-0.001776
-0.001879
-0.002057
-0.002078
-0.002060
-0.002162
-0.002136
-0.001968
-0.001868
-0.001960
-0.002047
-0.002023
-0.001871
-0.001795
-0.001955
-0.002230
-0.002516
-0.002487
-0.002236
-0.002128
-0.002262
-0.002348
-0.002270
-0.002125
-0.002052
-0.001921
-0.001776
-0.001842
-0.001905
-0.001782
-0.001784
-0.001918
-0.001942
-0.001842
-0.001929
-0.002207
-0.002346
-0.002230
-0.002178
-0.002199
-0.002070
-0.002081
-0.002152
-0.002065
-0.001811
-0.001792
-0.001934
-0.001884
-0.001774
-0.001787
-0.001753
-0.001664
-0.001732
-0.001803
-0.001787
-0.001643
-0.001593
-0.001514
-0.001330
-0.001286
-0.001388
-0.001527
-0.001656
-0.001811
-0.001816
-0.001711
-0.001561
-0.001490
-0.001703
-0.001934
-0.001873
-0.001858
-0.002062
-0.002141
-0.001908
-0.001800
-0.001782
-0.001543
-0.001236
-0.001218
-0.001438
-0.001580
-0.001737
-0.001955
-0.002073
-0.001994
-0.001942
-0.001881
-0.001677
-0.001498
-0.001498
-0.001601
-0.001624
-0.001661
-0.001690
-0.001753
-0.001808
-0.001839
-0.001727
-0.001548
-0.001561
-0.001737
-0.001826
-0.001755
-0.001755
-0.001624
-0.001504
-0.001616
-0.001771
-0.001711
-0.001506
-0.001611
-0.001873
-0.001811
-0.001574
-0.001504
-0.001496
-0.001490
-0.001669
-0.001821
-0.001742
-0.001577
-0.001611
-0.001671
-0.001530
-0.001378
-0.001320
-0.001320
-0.001315
-0.001236
-0.001183
-0.001336
-0.001564
-0.001640
-0.001540
-0.001519
-0.001540
-0.001448
-0.001343
-0.001472
-0.001608
-0.001595
-0.001679
-0.001813
-0.001727
-0.001493
-0.001422
-0.001582
-0.001569
-0.001506
-0.001509
-0.001593
-0.001509
-0.001446
-0.001472
-0.001553
-0.001656
-0.001748
-0.001784
-0.001858
-0.001981
-0.001845
-0.001622
-0.001540
-0.001391
-0.001136
-0.001189
-0.001564
-0.001695
-0.001532
-0.001454
-0.001561
-0.001538
-0.001414
-0.001401
-0.001378
-0.001286
-0.001281
-0.001317
-0.001236
-0.001168
-0.001317
-0.001414
-0.001378
-0.001354
-0.001438
-0.001538
-0.001475
-0.001399
-0.001380
-0.001393
-0.001388
-0.001406
-0.001399
-0.001501
-0.001469
-0.001454
-0.001433
-0.001396
-0.001378
-0.001441
-0.001501
-0.001498
-0.001443
-0.001296
-0.001178
-0.001168
-0.001278
-0.001448
-0.001504
-0.001451
-0.001239
-0.001097
-0.001026
-0.000995
-0.001047
-0.001144
-0.001194
-0.001228
-0.001231
-0.001278
-0.001225
-0.001113
-0.001089
-0.001212
-0.001288
-0.001312
-0.001364
-0.001448
-0.001454
-0.001380
-0.001375
-0.001383
-0.001281
-0.001149
-0.001113
-0.001162
-0.001244
-0.001317
-0.001427
-0.001506
-0.001480
-0.001506
-0.001606
-0.001624
-0.001506
-0.001296
-0.001113
-0.001120
-0.001120
-0.001160
-0.001160
-0.001050
-0.001010
-0.001102
-0.001199
-0.001134
-0.001094
-0.001115
-0.001257
-0.001375
-0.001435
-0.001401
-0.001296
-0.001307
-0.001467
-0.001459
-0.001207
-0.000987
-0.000905
-0.000871
-0.001008
-0.001176
-0.001278
-0.001401
-0.001454
-0.001362
-0.001283
-0.001231
-0.001136
-0.001036
-0.001105
-0.001304
-0.001396
-0.001291
-0.001359
-0.001504
-0.001459
-0.001252
-0.001186
-0.001157
-0.001120
-0.001236
-0.001375
-0.001362
-0.001283
-0.001152
-0.001050
-0.001055
-0.001134
-0.001267
-0.001283
-0.001254
-0.001260
-0.001294
-0.001325
-0.001296
-0.001336
-0.001333
-0.001244
-0.001199
-0.001267
-0.001252
-0.001181
-0.001173
-0.001254
-0.001281
-0.001173
-0.001092
-0.001060
-0.001118
-0.001197
-0.001170
-0.001141
-0.001207
-0.001288
-0.001212
-0.001099
-0.001057
-0.001034
-0.000979
-0.001044
-0.001152
-0.001183
-0.001220
-0.001294
-0.001322
-0.001204
-0.001092
-0.001128
-0.001139
-0.000989
-0.000876
-0.000874
-0.000748
-0.000748
-0.000874
-0.000819
-0.000682
-0.000661
-0.000808
-0.000953
-0.001055
-0.001042
-0.000947
-0.000866
-0.000971
-0.001173
-0.001162
-0.001039
-0.000787
-0.000661
-0.000656
-0.000761
-0.000792
-0.000766
-0.000837
-0.000900
-0.000992
-0.001039
-0.001086
-0.001173
-0.001155
-0.001105
-0.001015
-0.000958
-0.000834
-0.000719
-0.000764
-0.000769
-0.000737
-0.000727
-0.000850
-0.000918
-0.000895
-0.000842
-0.000911
-0.000829
-0.000735
-0.000848
-0.001042
-0.001060
-0.000900
-0.000900
-0.001094
-0.001073
-0.000929
-0.000890
-0.000892
-0.000845
-0.000750
-0.000614
-0.000640
-0.000722
-0.000714
-0.000790
-0.000884
-0.000722
-0.000585
-0.000598
-0.000706
-0.000792
-0.000816
-0.000916
-0.001002
-0.001183
-0.001239
-0.001141
-0.001092
-0.001173
-0.001162
-0.001036
-0.001078
-0.001225
-0.001202
-0.001050
-0.000955
-0.000903
-0.000869
-0.000798
-0.000882
-0.000992
-0.000966
-0.000989
-0.001131
-0.001160
-0.000950
-0.000735
-0.000769
-0.000871
-0.000926
-0.001065
-0.001162
-0.001097
-0.000947
-0.000955
-0.000932
-0.000771
-0.000659
-0.000730
-0.000937
-0.001149
-0.001215
-0.001162
-0.001076
-0.000976
-0.001021
-0.001034
-0.001021
-0.000932
-0.000827
-0.000806
-0.000753
-0.000543
-0.000375
-0.000370
-0.000438
-0.000525
-0.000609
-0.000622
-0.000735
-0.000913
-0.001034
-0.001086
-0.001139
-0.001136
-0.001068
-0.001050
-0.001005
-0.000853
-0.000730
-0.000764
-0.000811
-0.000829
-0.000698
-0.000583
-0.000648
-0.000714
-0.000769
-0.000782
-0.000819
-0.000800
-0.000698
-0.000716
-0.000722
-0.000640
-0.000627
-0.000748
-0.000850
-0.000785
-0.000701
-0.000630
-0.000625
-0.000619
-0.000664
-0.000800
-0.000932
-0.001015
-0.001071
-0.001086
-0.001008
-0.000890
-0.000918
-0.001008
-0.000913
-0.000829
-0.000900
-0.000926
-0.000866
-0.000890
-0.000934
-0.000829
-0.000656
-0.000617
-0.000590
-0.000551
-0.000588
-0.000716
-0.000813
-0.000795
-0.000703
-0.000758
-0.000816
-0.000782
-0.000743
-0.000735
-0.000761
-0.000690
-0.000543
-0.000499
-0.000562
-0.000556
-0.000556
-0.000567
-0.000478
-0.000436
-0.000551
-0.000611
-0.000556
-0.000522
-0.000667
-0.000719
-0.000695
-0.000709
-0.000811
-0.000819
-0.000743
-0.000766
-0.000811
-0.000730
-0.000732
-0.000879
-0.000842
-0.000690
-0.000648
-0.000690
-0.000506
-0.000318
-0.000402
-0.000706
-0.000837
-0.000806
-0.000829
-0.000782
-0.000622
-0.000527
-0.000577
-0.000664
-0.000588
-0.000638
-0.000627
-0.000611
-0.000648
-0.000685
-0.000706
-0.000648
-0.000604
-0.000601
-0.000601
-0.000449
-0.000506
-0.000630
-0.000672
-0.000876
-0.001128
-0.001152
-0.000934
-0.000869
-0.000821
-0.000656
-0.000525
-0.000661
-0.000761
-0.000690
-0.000632
-0.000698
-0.000709
-0.000653
-0.000583
-0.000446
-0.000265
-0.000220
-0.000265
-0.000281
-0.000228
-0.000194
-0.000205
-0.000260
-0.000289
-0.000451
-0.000646
-0.000627
-0.000454
-0.000412
-0.000567
-0.000619
-0.000583
-0.000611
-0.000601
-0.000444
-0.000396
-0.000409
-0.000349
-0.000352
-0.000614
-0.000785
-0.000714
-0.000593
-0.000548
-0.000402
-0.000278
-0.000318
-0.000423
-0.000504
-0.000575
-0.000625
-0.000535
-0.000357
-0.000215
-0.000197
-0.000289
-0.000354
-0.000365
-0.000404
-0.000517
-0.000535
-0.000559
-0.000562
-0.000535
-0.000499
-0.000609
-0.000596
-0.000438
-0.000391
-0.000409
-0.000370
-0.000352
-0.000420
-0.000459
-0.000483
-0.000462
-0.000543
-0.000646
-0.000693
-0.000737
-0.000806
-0.000795
-0.000690
-0.000800
-0.000806
-0.000643
-0.000475
-0.000467
-0.000483
-0.000485
-0.000520
-0.000520
-0.000467
-0.000423
-0.000318
-0.000255
-0.000262
-0.000375
-0.000601
-0.000648
-0.000588
-0.000512
-0.000459
-0.000373
-0.000444
-0.000622
-0.000583
-0.000420
-0.000286
-0.000199
-0.000095
-0.000150
-0.000268
-0.000315
-0.000336
-0.000381
-0.000438
-0.000567
-0.000593
-0.000527
-0.000512
-0.000541
-0.000530
-0.000606
-0.000593
-0.000564
-0.000475
-0.000438
-0.000499
-0.000533
-0.000433
-0.000341
-0.000262
-0.000181
-0.000341
-0.000438
-0.000304
-0.000304
-0.000415
-0.000499
-0.000627
-0.000790
-0.000785
-0.000525
-0.000286
-0.000226
-0.000210
-0.000257
-0.000407
-0.000472
-0.000420
-0.000436
-0.000564
-0.000533
-0.000548
-0.000677
-0.000764
-0.000732
-0.000596
-0.000470
-0.000360
-0.000409
-0.000548
-0.000575
-0.000541
-0.000719
-0.000908
-0.000787
-0.000638
-0.000619
-0.000638
-0.000648
-0.000648
-0.000604
-0.000388
-0.000228
-0.000286
-0.000493
-0.000472
-0.000315
-0.000297
-0.000239
-0.000163
-0.000252
-0.000488
-0.000580
-0.000457
-0.000310
-0.000320
-0.000299
-0.000210
-0.000268
-0.000320
-0.000210
-0.000071
-0.000102
-0.000113
-0.000055
-0.000097
-0.000226
-0.000318
-0.000320
-0.000391
-0.000402
-0.000307
-0.000184
-0.000176
-0.000210
-0.000226
-0.000257
-0.000349
-0.000465
-0.000425
-0.000354
-0.000278
-0.000268
-0.000241
-0.000129
-0.000068
-0.000194
-0.000415
-0.000541
-0.000525
-0.000478
-0.000441
-0.000365
-0.000244
-0.000213
-0.000257
-0.000213
-0.000165
-0.000228
-0.000297
-0.000273
-0.000194
-0.000171
-0.000139
-0.000097
-0.000147
-0.000286
-0.000310
-0.000312
-0.000383
-0.000386
-0.000268
-0.000197
-0.000234
-0.000192
-0.000247
-0.000451
-0.000564
-0.000501
-0.000386
-0.000394
-0.000341
-0.000297
-0.000289
-0.000404
-0.000509
-0.000551
-0.000622
-0.000588
-0.000394
-0.000205
-0.000084
-0.000024
-0.000013
-0.000042
-0.000179
-0.000304
-0.000423
-0.000501
-0.000485
-0.000396
-0.000360
-0.000354
-0.000362
-0.000354
-0.000297
-0.000328
-0.000168
0.000050
0.000100
0.000024
-0.000074
-0.000176
-0.000255
-0.000247
-0.000273
-0.000357
-0.000386
-0.000412
-0.000310
-0.000173
0.000003
0.000073
-0.000008
0.000018
-0.000008
-0.000126
-0.000286
-0.000352
-0.000323
-0.000304
-0.000325
-0.000339
-0.000404
-0.000509
-0.000493
-0.000365
-0.000239
-0.000100
-0.000026
0.000079
0.000086
-0.000058
-0.000116
-0.000129
-0.000144
-0.000239
-0.000260
-0.000199
-0.000179
-0.000113
-0.000045
0.000005
0.000026
0.000060
0.000084
0.000066
-0.000079
-0.000262
-0.000341
-0.000370
-0.000430
-0.000425
-0.000299
-0.000249
-0.000241
-0.000228
-0.000289
-0.000304
-0.000179
-0.000181
-0.000315
-0.000412
-0.000323
-0.000247
-0.000341
-0.000357
-0.000247
-0.000184
-0.000291
-0.000349
-0.000310
-0.000262
-0.000247
-0.000139
0.000029
0.000016
-0.000029
-0.000008
0.000081
0.000055
-0.000089
-0.000144
-0.000034
0.000024
-0.000037
0.000003
0.000024
0.000003
-0.000011
0.000013
-0.000110
-0.000236
-0.000262
-0.000239
-0.000179
-0.000137
-0.000123
-0.000092
0.000066
0.000107
0.000131
0.000121
0.000205
0.000189
0.000073
-0.000005
-0.000042
-0.000165
-0.000228
-0.000168
-0.000095
-0.000171
-0.000268
-0.000357
-0.000281
-0.000139
-0.000047
-0.000137
-0.000179
-0.000095
-0.000102
-0.000181
-0.000244
-0.000205
-0.000147
-0.000231
-0.000239
-0.000179
-0.000055
0.000024
0.000110
0.000047
-0.000079
-0.000213
-0.000333
-0.000520
-0.000792
-0.000748
-0.000580
-0.000378
-0.000179
-0.000084
-0.000084
-0.000079
-0.000047
-0.000113
-0.000173
-0.000184
-0.000113
-0.000026
0.000003
-0.000032
-0.000074
-0.000173
-0.000302
-0.000333
-0.000318
-0.000291
-0.000207
-0.000087
0.000021
0.000081
0.000126
0.000128
0.000105
0.000013
0.000013
0.000029
0.000018
-0.000000
-0.000087
-0.000147
-0.000252
-0.000294
-0.000247
-0.000265
-0.000289
-0.000173
0.000010
0.000060
0.000021
-0.000024
-0.000092
-0.000160
-0.000255
-0.000197
-0.000113
-0.000150
-0.000074
0.000197
0.000254
0.000086
-0.000018
-0.000079
-0.000189
-0.000205
-0.000063
0.000005
-0.000089
-0.000144
-0.000131
-0.000218
-0.000244
-0.000134
0.000042
0.000073
-0.000005
-0.000076
-0.000102
-0.000108
-0.000228
-0.000344
-0.000186
-0.000003
-0.000050
-0.000176
-0.000210
-0.000205
-0.000289
-0.000375
-0.000391
-0.000465
-0.000475
-0.000297
-0.000021
0.000066
0.000039
-0.000039
-0.000081
-0.000116
-0.000100
-0.000068
-0.000097
-0.000081
-0.000050
-0.000055
0.000086
0.000184
0.000118
0.000052
-0.000068
-0.000176
-0.000186
-0.000150
-0.000113
-0.000207
-0.000270
-0.000210
-0.000066
0.000018
-0.000042
-0.000123
-0.000081
-0.000016
-0.000021
0.000034
0.000050
0.000003
0.000029
0.000160
0.000184
0.000115
0.000029
-0.000095
-0.000134
-0.000055
0.000071
0.000115
0.000003
-0.000137
-0.000179
-0.000121
-0.000050
-0.000079
-0.000063
-0.000032
-0.000042
-0.000024
-0.000000
-0.000079
-0.000278
-0.000346
-0.000247
-0.000123
-0.000102
-0.000042
-0.000018
-0.000060
-0.000066
0.000010
0.000034
-0.000029
-0.000105
-0.000176
-0.000147
-0.000121
-0.000147
-0.000137
-0.000121
-0.000055
0.000055
0.000160
0.000207
0.000149
0.000055
0.000013
0.000045
0.000149
0.000123
-0.000055
-0.000079
-0.000013
-0.000029
-0.000066
0.000084
0.000097
-0.000011
-0.000089
-0.000144
-0.000063
-0.000029
0.000026
0.000079
0.000060
0.000068
0.000184
0.000231
0.000228
0.000226
0.000247
0.000349
0.000409
0.000367
0.000312
0.000226
0.000105
0.000073
0.000042
0.000021
0.000037
0.000016
0.000021
0.000089
0.000136
0.000105
-0.000016
-0.000089
-0.000021
0.000147
0.000186
0.000220
0.000228
0.000199
0.000118
0.000021
-0.000018
-0.000034
-0.000079
-0.000100
-0.000005
0.000058
0.000018
-0.000039
-0.000018
-0.000045
-0.000047
0.000068
0.000160
0.000121
0.000105
0.000128
0.000026
-0.000045
0.000084
0.000241
0.000320
0.000317
0.000315
0.000359
0.000404
0.000433
0.000333
0.000042
-0.000084
-0.000024
-0.000003
-0.000045
-0.000100
-0.000118
0.000005
0.000071
0.000094
0.000139
0.000231
0.000249
0.000231
0.000291
0.000336
0.000218
0.000107
0.000073
0.000010
-0.000102
-0.000095
-0.000000
0.000021
0.000068
0.000231
0.000260
0.000226
0.000254
0.000294
0.000176
0.000066
0.000026
-0.000081
-0.000066
0.000118
0.000273
0.000357
0.000286
0.000199
0.000147
0.000073
-0.000018
-0.000116
-0.000042
0.000092
0.000144
0.000097
0.000042
0.000013
-0.000084
-0.000105
-0.000042
0.000003
0.000081
0.000118
0.000152
0.000128
0.000071
0.000066
0.000086
0.000131
0.000118
0.000076
0.000016
0.000008
0.000050
0.000102
0.000050
-0.000034
0.000018
0.000168
0.000202
0.000218
0.000302
0.000304
0.000310
0.000365
0.000393
0.000323
0.000215
0.000223
0.000260
0.000252
0.000320
0.000378
0.000310
0.000220
0.000126
0.000039
-0.000100
-0.000063
0.000086
0.000160
0.000191
0.000184
0.000249
0.000218
0.000210
0.000194
0.000107
0.000081
0.000115
0.000173
0.000260
0.000304
0.000310
0.000236
0.000197
0.000178
0.000163
0.000205
0.000252
0.000299
0.000289
0.000338
0.000352
0.000291
0.000239
0.000270
0.000257
0.000252
0.000312
0.000218
0.000084
0.000089
0.000055
0.000050
0.000058
0.000134
0.000139
-0.000047
-0.000142
0.000029
0.000160
0.000107
-0.000021
-0.000087
-0.000160
-0.000142
-0.000005
0.000186
0.000228
0.000184
0.000265
0.000396
0.000294
0.000131
0.000094
0.000123
0.000139
0.000142
0.000291
0.000372
0.000388
0.000289
0.000181
0.000189
0.000291
0.000304
0.000299
0.000328
0.000278
0.000147
0.000084
0.000134
0.000165
0.000165
0.000181
0.000275
0.000289
0.000325
0.000278
0.000147
0.000026
-0.000060
-0.000003
0.000126
0.000121
0.000100
0.000005
-0.000095
-0.000081
-0.000042
0.000042
0.000136
0.000252
0.000270
0.000239
0.000239
0.000247
0.000228
0.000228
0.000304
0.000302
0.000094
0.000008
0.000016
0.000008
-0.000139
-0.000215
-0.000118
-0.000047
0.000050
0.000220
0.000249
0.000236
0.000281
0.000357
0.000331
0.000173
0.000199
0.000202
0.000105
0.000131
0.000157
0.000165
0.000173
0.000220
0.000220
0.000220
0.000168
0.000102
0.000097
0.000110
0.000210
0.000205
0.000068
0.000066
0.000092
0.000231
0.000349
0.000388
0.000315
0.000157
0.000094
0.000123
0.000184
0.000215
0.000126
0.000029
0.000084
0.000191
0.000252
0.000239
0.000226
0.000205
0.000257
0.000370
0.000407
0.000307
0.000173
0.000189
0.000278
0.000338
0.000260
0.000247
0.000294
0.000278
0.000241
0.000249
0.000265
0.000233
0.000323
0.000409
0.000430
0.000247
0.000157
0.000173
0.000142
0.000126
0.000149
0.000218
0.000268
0.000346
0.000396
0.000341
0.000241
0.000210
0.000289
0.000310
0.000302
0.000370
0.000409
0.000315
0.000268
0.000244
0.000194
0.000241
0.000320
0.000325
0.000252
0.000168
0.000202
0.000126
-0.000016
-0.000032
0.000047
0.000050
0.000115
0.000199
0.000262
0.000268
0.000254
0.000275
0.000247
0.000165
0.000126
0.000107
0.000152
0.000265
0.000365
0.000462
0.000475
0.000491
0.000480
0.000459
0.000409
0.000396
0.000386
0.000302
0.000244
0.000207
0.000336
0.000417
0.000346
0.000257
0.000260
0.000370
0.000414
0.000375
0.000286
0.000170
0.000173
0.000294
0.000435
0.000498
0.000522
0.000530
0.000485
0.000435
0.000467
0.000449
0.000299
0.000233
0.000289
0.000304
0.000244
0.000207
0.000184
0.000223
0.000223
0.000294
0.000420
0.000449
0.000370
0.000281
0.000210
0.000286
0.000401
0.000451
0.000401
0.000393
0.000383
0.000441
0.000517
0.000603
0.000567
0.000449
0.000357
0.000304
0.000341
0.000409
0.000504
0.000412
0.000265
0.000228
0.000252
0.000312
0.000273
0.000207
0.000228
0.000265
0.000365
0.000310
0.000252
0.000215
0.000191
0.000155
0.000181
0.000244
0.000304
0.000407
0.000538
0.000551
0.000475
0.000438
0.000467
0.000527
0.000535
0.000425
0.000409
0.000386
0.000241
0.000115
0.000071
0.000139
0.000205
0.000268
0.000399
0.000456
0.000417
0.000378
0.000433
0.000472
0.000420
0.000449
0.000535
0.000527
0.000443
0.000409
0.000477
0.000454
0.000399
0.000349
0.000312
0.000241
0.000205
0.000176
0.000134
0.000110
0.000178
0.000191
0.000270
0.000299
0.000249
0.000194
0.000128
0.000139
0.000118
0.000136
0.000302
0.000409
0.000404
0.000485
0.000548
0.000514
0.000365
0.000294
0.000283
0.000173
0.000047
0.000045
0.000168
0.000184
0.000218
0.000302
0.000420
0.000388
0.000362
0.000380
0.000391
0.000430
0.000433
0.000323
0.000262
0.000331
0.000378
0.000401
0.000564
0.000729
0.000658
0.000564
0.000525
0.000517
0.000464
0.000407
0.000433
0.000283
0.000275
0.000428
0.000567
0.000509
0.000472
0.000525
0.000493
0.000407
0.000480
0.000575
0.000480
0.000504
0.000619
0.000693
0.000635
0.000543
0.000477
0.000435
0.000383
0.000302
0.000244
0.000291
0.000407
0.000464
0.000325
0.000241
0.000247
0.000239
0.000199
0.000328
0.000399
0.000307
0.000210
0.000289
0.000362
0.000362
0.000409
0.000454
0.000393
0.000273
0.000278
0.000325
0.000302
0.000241
0.000239
0.000304
0.000425
0.000506
0.000488
0.000435
0.000312
0.000275
0.000331
0.000404
0.000414
0.000391
0.000443
0.000538
0.000472
0.000388
0.000435
0.000412
0.000391
0.000441
0.000470
0.000443
0.000317
0.000317
0.000414
0.000399
0.000273
0.000233
0.000310
0.000380
0.000454
0.000512
0.000506
0.000467
0.000404
0.000391
0.000467
0.000475
0.000446
0.000396
0.000367
0.000417
0.000393
0.000404
0.000367
0.000328
0.000307
0.000338
0.000399
0.000514
0.000540
0.000522
0.000569
0.000614
0.000585
0.000527
0.000433
0.000328
0.000247
0.000254
0.000333
0.000467
0.000496
0.000506
0.000498
0.000454
0.000438
0.000451
0.000454
0.000435
0.000370
0.000352
0.000375
0.000506
0.000559
0.000572
0.000609
0.000677
0.000690
0.000693
0.000653
0.000554
0.000430
0.000391
0.000433
0.000506
0.000543
0.000551
0.000525
0.000556
0.000546
0.000506
0.000501
0.000533
0.000588
0.000590
0.000582
0.000577
0.000454
0.000307
0.000244
0.000349
0.000425
0.000393
0.000454
0.000517
0.000554
0.000554
0.000567
0.000577
0.000554
0.000522
0.000538
0.000493
0.000341
0.000194
0.000286
0.000425
0.000488
0.000530
0.000575
0.000601
0.000548
0.000493
0.000404
0.000393
0.000491
0.000533
0.000606
0.000640
0.000575
0.000525
0.000477
0.000535
0.000506
0.000454
0.000501
0.000653
0.000714
0.000609
0.000464
0.000459
0.000527
0.000572
0.000540
0.000554
0.000498
0.000420
0.000380
0.000472
0.000519
0.000590
0.000606
0.000635
0.000693
0.000596
0.000472
0.000414
0.000378
0.000357
0.000417
0.000480
0.000454
0.000375
0.000375
0.000430
0.000386
0.000372
0.000464
0.000530
0.000538
0.000435
0.000354
0.000435
0.000596
0.000596
0.000514
0.000464
0.000344
0.000249
0.000315
0.000399
0.000488
0.000491
0.000491
0.000554
0.000588
0.000496
0.000336
0.000296
0.000323
0.000344
0.000370
0.000443
0.000493
0.000435
0.000472
0.000559
0.000585
0.000525
0.000456
0.000477
0.000480
0.000441
0.000401
0.000472
0.000496
0.000525
0.000585
0.000611
0.000596
0.000619
0.000590
0.000488
0.000428
0.000438
0.000422
0.000456
0.000527
0.000630
0.000637
0.000627
0.000590
0.000627
0.000617
0.000614
0.000588
0.000559
0.000504
0.000446
0.000428
0.000522
0.000543
0.000522
0.000438
0.000417
0.000459
0.000509
0.000506
0.000475
0.000498
0.000575
0.000651
0.000601
0.000554
0.000590
0.000546
0.000501
0.000509
0.000540
0.000538
0.000546
0.000585
0.000588
0.000496
0.000480
0.000540
0.000632
0.000624
0.000564
0.000585
0.000619
0.000611
0.000588
0.000677
0.000708
0.000682
0.000674
0.000682
0.000661
0.000677
0.000690
0.000708
0.000750
0.000698
0.000614
0.000567
0.000614
0.000496
0.000359
0.000417
0.000501
0.000588
0.000648
0.000679
0.000714
0.000666
0.000548
0.000454
0.000433
0.000504
0.000575
0.000640
0.000664
0.000624
0.000462
0.000386
0.000412
0.000404
0.000393
0.000422
0.000556
0.000596
0.000475
0.000501
0.000582
0.000572
0.000519
0.000491
0.000554
0.000609
0.000645
0.000679
0.000661
0.000483
0.000338
0.000367
0.000527
0.000527
0.000556
0.000711
0.000766
0.000714
0.000753
0.000769
0.000661
0.000470
0.000475
0.000614
0.000753
0.000750
0.000742
0.000656
0.000601
0.000645
0.000687
0.000721
0.000740
0.000735
0.000703
0.000645
0.000643
0.000727
0.000716
0.000664
0.000540
0.000512
0.000504
0.000470
0.000454
0.000493
0.000446
0.000383
0.000399
0.000480
0.000519
0.000525
0.000512
0.000485
0.000441
0.000491
0.000572
0.000590
0.000664
0.000706
0.000735
0.000766
0.000779
0.000808
0.000782
0.000721
0.000664
0.000643
0.000590
0.000501
0.000506
0.000674
0.000787
0.000756
0.000811
0.000787
0.000750
0.000690
0.000706
0.000682
0.000690
0.000756
0.000826
0.000858
0.000811
0.000816
0.000748
0.000695
0.000719
0.000753
0.000695
0.000714
0.000682
0.000645
0.000554
0.000567
0.000617
0.000698
0.000695
0.000590
0.000498
0.000496
0.000559
0.000622
0.000661
0.000622
0.000603
0.000575
0.000630
0.000627
0.000551
0.000543
0.000512
0.000514
0.000530
0.000590
0.000651
0.000611
0.000590
0.000645
0.000724
0.000742
0.000756
0.000750
0.000769
0.000724
0.000698
0.000716
0.000771
0.000800
0.000727
0.000530
0.000472
0.000483
0.000517
0.000567
0.000658
0.000661
0.000585
0.000488
0.000477
0.000504
0.000548
0.000656
0.000758
0.000774
0.000758
0.000774
0.000669
0.000488
0.000409
0.000430
0.000538
0.000561
0.000462
0.000399
0.000422
0.000467
0.000472
0.000498
0.000472
0.000422
0.000533
0.000609
0.000653
0.000627
0.000601
0.000677
0.000756
0.000732
0.000645
0.000637
0.000632
0.000567
0.000464
0.000425
0.000443
0.000485
0.000538
0.000614
0.000632
0.000656
0.000735
0.000742
0.000679
0.000603
0.000601
0.000640
0.000632
0.000614
0.000572
0.000622
0.000572
0.000517
0.000491
0.000514
0.000632
0.000687
0.000784
0.000774
0.000658
0.000601
0.000687
0.000682
0.000498
0.000365
0.000352
0.000344
0.000407
0.000514
0.000622
0.000653
0.000708
0.000816
0.000850
0.000719
0.000669
0.000677
0.000577
0.000501
0.000609
0.000721
0.000698
0.000661
0.000598
0.000601
0.000622
0.000732
0.000756
0.000627
0.000572
0.000637
0.000737
0.000753
0.000787
0.000861
0.000900
0.000813
0.000742
0.000829
0.000813
0.000769
0.000748
0.000716
0.000795
0.000826
0.000745
0.000666
0.000611
0.000522
0.000509
0.000554
0.000690
0.000724
0.000716
0.000758
0.000800
0.000824
0.000756
0.000711
0.000687
0.000640
0.000627
0.000640
0.000606
0.000577
0.000695
0.000800
0.000861
0.000871
0.000861
0.000819
0.000727
0.000674
0.000617
0.000551
0.000585
0.000708
0.000790
0.000740
0.000742
0.000664
0.000617
0.000645
0.000711
0.000784
0.000800
0.000884
0.000934
0.000895
0.000845
0.000795
0.000782
0.000795
0.000784
0.000756
0.000740
0.000685
0.000637
0.000603
0.000632
0.000590
0.000530
0.000464
0.000509
0.000554
0.000540
0.000645
0.000708
0.000687
0.000614
0.000564
0.000575
0.000509
0.000422
0.000498
0.000540
0.000603
0.000666
0.000727
0.000787
0.000779
0.000758
0.000745
0.000700
0.000682
0.000711
0.000729
0.000637
0.000546
0.000551
0.000517
0.000498
0.000601
0.000700
0.000682
0.000682
0.000700
0.000724
0.000719
0.000766
0.000866
0.000803
0.000753
0.000745
0.000682
0.000614
0.000585
0.000664
0.000622
0.000590
0.000609
0.000577
0.000525
0.000485
0.000491
0.000519
0.000556
0.000643
0.000690
0.000708
0.000677
0.000664
0.000640
0.000488
0.000464
0.000519
0.000564
0.000682
0.000782
0.000813
0.000858
0.000855
0.000821
0.000840
0.000824
0.000774
0.000750
0.000711
0.000666
0.000580
0.000575
0.000606
0.000643
0.000679
0.000774
0.000866
0.000763
0.000669
0.000630
0.000617
0.000637
0.000685
0.000769
0.000742
0.000685
0.000672
0.000664
0.000635
0.000664
0.000687
0.000679
0.000711
0.000711
0.000669
0.000656
0.000666
0.000664
0.000679
0.000653
0.000645
0.000640
0.000624
0.000601
0.000551
0.000548
0.000635
0.000708
0.000708
0.000763
0.000756
0.000677
0.000569
0.000554
0.000609
0.000627
0.000617
0.000664
0.000661
0.000585
0.000632
0.000779
0.000840
0.000769
0.000748
0.000811
0.000819
0.000706
0.000627
0.000525
0.000470
0.000483
0.000470
0.000451
0.000551
0.000682
0.000769
0.000847
0.000892
0.000837
0.000724
0.000703
0.000727
0.000653
0.000577
0.000630
0.000742
0.000766
0.000742
0.000666
0.000664
0.000737
0.000792
0.000808
0.000740
0.000656
0.000669
0.000787
0.000845
0.000792
0.000753
0.000732
0.000664
0.000538
0.000493
0.000477
0.000498
0.000596
0.000695
0.000700
0.000721
0.000729
0.000756
0.000711
0.000708
0.000716
0.000742
0.000719
0.000737
0.000766
0.000706
0.000632
0.000672
0.000763
0.000784
0.000782
0.000908
0.000942
0.000824
0.000748
0.000782
0.000735
0.000651
0.000658
0.000716
0.000674
0.000669
0.000695
0.000782
0.000748
0.000769
0.000782
0.000784
0.000758
0.000745
0.000750
0.000808
0.000829
0.000774
0.000748
0.000750
0.000698
0.000525
0.000407
0.000525
0.000645
0.000711
0.000756
0.000824
0.000819
0.000753
0.000700
0.000674
0.000640
0.000596
0.000556
0.000603
0.000648
0.000635
0.000517
0.000483
0.000567
0.000611
0.000630
0.000645
0.000664
0.000685
0.000690
0.000729
0.000753
0.000721
0.000729
0.000779
0.000790
0.000771
0.000724
0.000666
0.000564
0.000496
0.000527
0.000585
0.000627
0.000643
0.000690
0.000719
0.000700
0.000685
0.000748
0.000829
0.000795
0.000792
0.000787
0.000813
0.000861
0.000876
0.000855
0.000929
0.000997
0.000918
0.000853
0.000876
0.000808
0.000661
0.000648
0.000729
0.000703
0.000624
0.000598
0.000674
0.000653
0.000645
0.000687
0.000724
0.000653
0.000596
0.000677
0.000750
0.000745
0.000742
0.000748
0.000790
0.000803
0.000819
0.000813
0.000748
0.000732
0.000719
0.000721
0.000735
0.000766
0.000745
0.000721
0.000711
0.000787
0.000826
0.000798
0.000813
0.000782
0.000727
0.000735
0.000813
0.000853
0.000853
0.000811
0.000805
0.000813
0.000819
0.000800
0.000748
0.000740
0.000792
0.000858
0.000861
0.000777
0.000706
0.000698
0.000651
0.000687
0.000816
0.000908
0.000882
0.000840
0.000737
0.000585
0.000509
0.000648
0.000782
0.000737
0.000698
0.000700
0.000756
0.000735
0.000711
0.000700
0.000708
0.000798
0.000884
0.000937
0.000845
0.000805
0.000808
0.000792
0.000811
0.000829
0.000798
0.000753
0.000756
0.000640
0.000480
0.000454
0.000498
0.000630
0.000761
0.000803
0.000819
0.000824
0.000837
0.000821
0.000813
0.000845
0.000700
0.000477
0.000456
0.000606
0.000724
0.000750
0.000787
0.000766
0.000729
0.000782
0.000787
0.000740
0.000700
0.000756
0.000850
0.000918
0.000918
0.000842
0.000784
0.000737
0.000795
0.000855
0.000926
0.000837
0.000656
0.000596
0.000645
0.000653
0.000656
0.000695
0.000700
0.000643
0.000703
0.000766
0.000732
0.000656
0.000661
0.000685
0.000685
0.000682
0.000735
0.000803
0.000813
0.000813
0.000863
0.000779
0.000753
0.000798
0.000811
0.000771
0.000664
0.000682
0.000756
0.000771
0.000748
0.000819
0.000947
0.000942
0.000947
0.000908
0.000879
0.000816
0.000821
0.000824
0.000845
0.000795
0.000687
0.000685
0.000640
0.000682
0.000732
0.000756
0.000784
0.000690
0.000666
0.000756
0.000871
0.000868
0.000921
0.000947
0.000976
0.001018
0.000976
0.000960
0.000916
0.000845
0.000819
0.000813
0.000784
0.000777
0.000756
0.000695
0.000640
0.000640
0.000627
0.000577
0.000632
0.000742
0.000787
0.000777
0.000737
0.000787
0.000837
0.000779
0.000624
0.000530
0.000601
0.000737
0.000821
0.000832
0.000840
0.000832
0.000811
0.000798
0.000792
0.000695
0.000567
0.000530
0.000609
0.000666
0.000708
0.000792
0.000803
0.000758
0.000698
0.000664
0.000716
0.000800
0.000821
0.000918
0.000944
0.000902
0.000874
0.000850
0.000842
0.000795
0.000876
0.000918
0.000897
0.000918
0.000929
0.000934
0.000934
0.000950
0.000908
0.000847
0.000826
0.000763
0.000748
0.000769
0.000832
0.000837
0.000858
0.000884
0.000913
0.000965
0.000971
0.000908
0.000884
0.000889
0.000866
0.000837
0.000816
0.000779
0.000695
0.000716
0.000787
0.000837
0.000879
0.000832
0.000826
0.000805
0.000774
0.000871
0.000905
0.000871
0.000845
0.000774
0.000782
0.000784
0.000792
0.000805
0.000756
0.000774
0.000753
0.000719
0.000682
0.000564
0.000617
0.000706
0.000750
0.000766
0.000742
0.000719
0.000682
0.000805
0.000821
0.000790
0.000800
0.000876
0.000874
0.000805
0.000824
0.000834
0.000740
0.000674
0.000721
0.000800
0.000761
0.000777
0.000866
0.000916
0.000910
0.000939
0.000897
0.000834
0.000821
0.000902
0.000937
0.000876
0.000850
0.000874
0.000947
0.000944
0.000874
0.000811
0.000805
0.000824
0.000834
0.000850
0.000876
0.000918
0.000976
0.000997
0.000958
0.000879
0.000861
0.000855
0.000845
0.000842
0.000826
0.000850
0.000889
0.000847
0.000850
0.000850
0.000829
0.000803
0.000871
0.000968
0.001021
0.001005
0.000981
0.000916
0.000887
0.000868
0.000840
0.000834
0.000832
0.000882
0.000889
0.000863
0.000761
0.000750
0.000724
0.000748
0.000798
0.000829
0.000900
0.000963
0.000989
0.000971
0.000952
0.000939
0.000921
0.000979
0.000992
0.000955
0.000918
0.000942
0.001000
0.000992
0.000921
0.000902
0.000853
0.000816
0.000819
0.000850
0.000871
0.000819
0.000816
0.000771
0.000826
0.000895
0.000855
0.000761
0.000763
0.000826
0.000858
0.000921
0.000952
0.000968
0.001023
0.000992
0.000937
0.000963
0.000921
0.000845
0.000842
0.000816
0.000745
0.000727
0.000745
0.000813
0.000832
0.000850
0.000958
0.000989
0.000971
0.000971
0.000916
0.000834
0.000845
0.000937
0.000950
0.000858
0.000774
0.000708
0.000724
0.000766
0.000753
0.000777
0.000808
0.000847
0.000884
0.000905
0.000913
0.000923
0.000897
0.000929
0.000910
0.000850
0.000750
0.000750
0.000784
0.000805
0.000816
0.000847
0.000889
0.000910
0.000939
0.001036
0.001010
0.000910
0.000868
0.000900
0.000937
0.000895
0.000882
0.000905
0.000923
0.000963
0.001021
0.000968
0.000884
0.000798
0.000834
0.000910
0.000934
0.000931
0.000952
0.000918
0.000792
0.000774
0.000742
0.000769
0.000808
0.000892
0.000944
0.000976
0.001018
0.000937
0.000871
0.000761
0.000740
0.000840
0.000939
0.000879
0.000834
0.000811
0.000745
0.000729
0.000847
0.000979
0.000997
0.000947
0.000931
0.000905
0.000829
0.000813
0.000853
0.000792
0.000769
0.000821
0.000853
0.000803
0.000771
0.000816
0.000803
0.000732
0.000782
0.000868
0.000855
0.000826
0.000821
0.000805
0.000761
0.000821
0.000934
0.000934
0.000882
0.000837
0.000855
0.000895
0.000910
0.000895
0.000826
0.000771
0.000721
0.000740
0.000756
0.000777
0.000803
0.000879
0.000923
0.000871
0.000840
0.000887
0.000992
0.000955
0.000955
0.000952
0.000944
0.000923
0.000944
0.000934
0.000892
0.000845
0.000868
0.000900
0.000853
0.000795
0.000716
0.000643
0.000740
0.000832
0.000790
0.000784
0.000798
0.000819
0.000837
0.000931
0.000963
0.000976
0.000971
0.001021
0.001055
0.000939
0.000876
0.000858
0.000792
0.000816
0.000879
0.000923
0.000900
0.000858
0.000871
0.000868
0.000805
0.000824
0.000897
0.000892
0.000876
0.000840
0.000897
0.000942
0.000905
0.000944
0.000960
0.000923
0.000813
0.000811
0.000824
0.000784
0.000708
0.000685
0.000729
0.000745
0.000761
0.000800
0.000824
0.000832
0.000897
0.000947
0.000916
0.000813
0.000758
0.000868
0.000958
0.001018
0.001013
0.001015
0.001013
0.000968
0.001000
0.000973
0.000931
0.000960
0.000965
0.000955
0.000939
0.000944
0.000931
0.000876
0.000837
0.000847
0.000882
0.000902
0.000921
0.000937
0.000950
0.000916
0.000850
0.000861
0.000884
0.000821
0.000847
0.000929
0.000971
0.000955
0.000971
0.000931
0.000842
0.000863
0.000874
0.000803
0.000737
0.000790
0.000897
0.000976
0.001060
0.001049
0.000979
0.000897
0.000884
0.000947
0.000913
0.000834
0.000840
0.000887
0.000902
0.000913
0.000921
0.000892
0.000871
0.000763
0.000808
0.000923
0.000916
0.000876
0.000908
0.001000
0.001002
0.000955
0.000968
0.000939
0.000926
0.000934
0.000952
0.000931
0.000902
0.000882
0.000866
0.000821
0.000769
0.000798
0.000798
0.000824
0.000879
0.000963
0.000992
0.000944
0.000965
0.000968
0.000992
0.000958
0.000895
0.000861
0.000840
0.000847
0.000913
0.000892
0.000921
0.000931
0.000916
0.000937
0.000976
0.001028
0.001026
0.001028
0.001026
0.001052
0.001042
0.000952
0.000882
0.000782
0.000829
0.000834
0.000787
0.000792
0.000847
0.000923
0.000960
0.000963
0.000902
0.000787
0.000719
0.000732
0.000753
0.000724
0.000774
0.000908
0.000879
0.000884
0.000934
0.000973
0.000913
0.000902
0.000916
0.000944
0.000921
0.000847
0.000798
0.000819
0.000792
0.000763
0.000769
0.000871
0.000897
0.000913
0.000960
0.000916
0.000929
0.001002
0.001052
0.000963
0.000879
0.000874
0.000926
0.001005
0.000986
0.000976
0.000952
0.000950
0.000958
0.000926
0.000942
0.000902
0.000824
0.000821
0.000871
0.000918
0.000847
0.000826
0.000887
0.000874
0.000821
0.000871
0.000913
0.000908
0.000910
0.001007
0.001099
0.001107
0.001026
0.001013
0.001055
0.001021
0.000981
0.000986
0.000916
0.000866
0.000879
0.000923
0.000934
0.000897
0.000931
0.001023
0.000971
0.000984
0.001049
0.001036
0.001013
0.000944
0.000916
0.000934
0.000952
0.000973
0.001007
0.001021
0.000937
0.000861
0.000808
0.000816
0.000868
0.000884
0.000845
0.000884
0.000811
0.000735
0.000727
0.000737
0.000750
0.000826
0.000892
0.000921
0.000834
0.000787
0.000792
0.000900
0.000960
0.001028
0.001042
0.000992
0.000895
0.000905
0.000937
0.000944
0.000889
0.000795
0.000842
0.000968
0.001010
0.001015
0.000942
0.000790
0.000790
0.000847
0.000965
0.001013
0.000973
0.000939
0.000918
0.000923
0.000947
0.000963
0.000921
0.000947
0.000855
0.000824
0.000850
0.000863
0.000837
0.000884
0.000952
0.001028
0.000981
0.000944
0.000952
0.000897
0.000798
0.000813
0.000973
0.001070
0.001060
0.001023
0.000958
0.000965
0.000950
0.000934
0.000952
0.000994
0.001021
0.001039
0.001086
0.001018
0.000884
0.000845
0.000871
0.000902
0.000902
0.000947
0.001026
0.000994
0.001026
0.001057
0.001013
0.000992
0.001002
0.001026
0.001070
0.001047
0.001018
0.001063
0.001094
0.001165
0.001105
0.001118
0.001115
0.001078
0.000981
0.000876
0.000792
0.000769
0.000790
0.000819
0.000861
0.000879
0.000923
0.000929
0.000895
0.000868
0.000842
0.000882
0.000934
0.001018
0.001060
0.001120
0.001141
0.001086
0.000994
0.000944
0.000874
0.000876
0.000905
0.000965
0.001000
0.001057
0.001042
0.001002
0.000950
0.000981
0.000986
0.000994
0.001002
0.001002
0.001021
0.000942
0.000923
0.000984
0.001042
0.001039
0.001076
0.001147
0.001076
0.000968
0.000916
0.000879
0.000837
0.000850
0.000871
0.000952
0.001013
0.001047
0.001063
0.000981
0.000939
0.000997
0.001057
0.000979
0.000800
0.000732
0.000735
0.000805
0.000861
0.000884
0.000918
0.000960
0.000984
0.000981
0.001052
0.001068
0.000960
0.000858
0.000866
0.000876
0.000923
0.001028
0.001078
0.001060
0.001076
0.001034
0.000986
0.000934
0.000918
0.000942
0.000934
0.000889
0.000861
0.000892
0.000889
0.000858
0.000868
0.000884
0.000861
0.000837
0.000884
0.000908
0.000847
0.000874
0.000918
0.000965
0.000992
0.001028
0.001126
0.001065
0.001000
0.000955
0.000934
0.000929
0.000934
0.001007
0.000976
0.000981
0.001042
0.001021
0.000968
0.000997
0.000942
0.000826
0.000792
0.000826
0.000929
0.000952
0.000976
0.000965
0.001013
0.001042
0.001031
0.001018
0.000992
0.000947
0.000934
0.000958
0.001021
0.000981
0.000942
0.001031
0.001065
0.001089
0.001084
0.001044
0.001047
0.000958
0.000947
0.000960
0.000955
0.000960
0.000981
0.001052
0.001094
0.001141
0.001107
0.001105
0.001068
0.001089
0.001047
0.000979
0.000994
0.001026
0.000994
0.001065
0.001147
0.001097
0.001052
0.000939
0.000939
0.000913
0.000837
0.000842
0.000921
0.000971
0.001023
0.001021
0.001013
0.001052
0.001105
0.001094
0.001081
0.001057
0.000984
0.000918
0.000908
0.000963
0.001073
0.001078
0.001052
0.000971
0.000971
0.000989
0.001047
0.001073
0.001081
0.001076
0.001076
0.001084
0.001081
0.001013
0.000979
0.000950
0.000955
0.000976
0.000989
0.001007
0.000997
0.000944
0.000921
0.000944
0.001007
0.001028
0.001073
0.000986
0.000955
0.000979
0.001023
0.000992
0.000879
0.000763
0.000721
0.000803
0.000889
0.000944
0.000981
0.000910
0.000829
0.000816
0.000811
0.000792
0.000847
0.000868
0.000913
0.000963
0.001063
0.001081
0.001102
0.001039
0.000981
0.000918
0.000900
0.000876
0.000910
0.000944
0.000952
0.000947
0.000923
0.000887
0.000829
0.000798
0.000876
0.000986
0.000994
0.001007
0.001044
0.000994
0.000979
0.000997
0.001042
0.001049
0.001036
0.000960
0.000921
0.000939
0.000992
0.000963
0.000981
0.001000
0.001007
0.001018
0.001018
0.001026
0.001000
0.000986
0.001018
0.001084
0.001144
0.001126
0.001097
0.001076
0.001086
0.001042
0.000989
0.000929
0.000850
0.000845
0.000971
0.001034
0.001005
0.000984
0.001049
0.001076
0.001034
0.001028
0.001000
0.000986
0.000918
0.000897
0.000921
0.000923
0.001013
0.001110
0.001175
0.001128
0.001097
0.001042
0.001034
0.001097
0.001162
0.001102
0.001068
0.001031
0.001042
0.001052
0.001073
0.001034
0.000976
0.000979
0.000994
0.000997
0.001013
0.000950
0.000923
0.000937
0.000942
0.001002
0.001049
0.000973
0.001007
0.001034
0.001034
0.001078
0.001063
0.001060
0.001073
0.001091
0.001105
0.001052
0.000981
0.000958
0.000989
0.001021
0.000997
0.000979
0.001031
0.001094
0.001105
0.001105
0.001120
0.001078
0.001049
0.001076
0.001065
0.001120
0.001133
0.001128
0.001120
0.001081
0.001060
0.000942
0.000921
0.000934
0.000926
0.000855
0.000803
0.000819
0.000832
0.000795
0.000929
0.000986
0.000981
0.000979
0.001021
0.001021
0.000963
0.000923
0.000871
0.000871
0.000913
0.000926
0.000986
0.001073
0.001068
0.001028
0.000981
t0(sec) = 0.000000E+0
dt(sec) = 4.000000E-10
F3:INSP "
DESCRIPTOR_NAME    : WAVEDESC           
TEMPLATE_NAME      : LECROY_2_3         
COMM_TYPE          : word               
COMM_ORDER         : HIFIRST            
WAVE_DESCRIPTOR    : 346                
USER_TEXT          : 0                  
RES_DESC1          : 0                  
TRIGTIME_ARRAY     : 0                  
RIS_TIME_ARRAY     : 0                  
RES_ARRAY1         : 0                  
WAVE_ARRAY_1       : 9952               
WAVE_ARRAY_2       : 0                  
RES_ARRAY2         : 0                  
RES_ARRAY3         : 0                  
INSTRUMENT_NAME    : LECROYHDO6104      
INSTRUMENT_NUMBER  : 6308               
TRACE_LABEL        :                    
RESERVED1          : 4976               
RESERVED2          : 0                  
WAVE_ARRAY_COUNT   : 4976               
PNTS_PER_SCREEN    : 5000               
FIRST_VALID_PNT    : 0                  
LAST_VALID_PNT     : 4975               
FIRST_POINT        : 0                  
SPARSING_FACTOR    : 1                  
SEGMENT_INDEX      : 0                  
SUBARRAY_COUNT     : 1                  
SWEEPS_PER_ACQ     : 200                
POINTS_PER_PAIR    : 0                  
PAIR_OFFSET        : 0                  
VERTICAL_GAIN      : 2.4989e-006        
VERTICAL_OFFSET    : 1.6500e-002        
MAX_VALUE          : 3.0578e+004        
MIN_VALUE          : 1.4827e+004        
NOMINAL_BITS       : 16                 
NOM_SUBARRAY_COUNT : 1                  
HORIZ_INTERVAL     : 4.0000e-010        
HORIZ_OFFSET       : -2.00000000e-007   
PIXEL_OFFSET       : -2.10000000e-007   
VERTUNIT           : Unit Name = V
HORUNIT            : Unit Name = S
HORIZ_UNCERTAINTY  : 1.0000e-012        
TRIGGER_TIME       : Date = APR 17, 2024, Time = 19:20:25.261639918
ACQ_DURATION       : 9.9991e+000        
RECORD_TYPE        : single_sweep       
PROCESSING_DONE    : no_processing      
RESERVED5          : 0                  
RIS_SWEEPS         : 1                  
TIMEBASE           : 200_ns/div         
VERT_COUPLING      : DC_50_Ohms         
PROBE_ATT          : 1.0000e+000        
FIXED_VERT_GAIN    : 5_mV/div           
BANDWIDTH_LIMIT    : off                
VERTICAL_VERNIER   : 1.0000e+000        
ACQ_VERT_OFFSET    : 0.0000e+000        
WAVE_SOURCE        : UNKNOWN            
"
0.000485
0.000465
0.000502
0.000492
0.000495
0.000510
0.000517
0.000487
0.000462
0.000472
0.000470
0.000455
0.000492
0.000497
0.000480
0.000485
0.000497
0.000462
0.000470
0.000485
0.000457
0.000455
0.000477
0.000495
0.000485
0.000485
0.000482
0.000450
0.000470
0.000480
0.000502
0.000445
0.000482
0.000485
0.000447
0.000442
0.000490
0.000442
0.000452
0.000505
0.000472
0.000427
0.000492
0.000475
0.000455
0.000467
0.000490
0.000482
0.000467
0.000505
0.000482
0.000477
0.000497
0.000475
0.000457
0.000467
0.000487
0.000475
0.000455
0.000477
0.000477
0.000425
0.000462
0.000472
0.000455
0.000450
0.000532
0.000460
0.000435
0.000490
0.000477
0.000440
0.000512
0.000495
0.000492
0.000495
0.000527
0.000497
0.000475
0.000497
0.000457
0.000460
0.000490
0.000512
0.000447
0.000475
0.000500
0.000480
0.000472
0.000490
0.000495
0.000460
0.000495
0.000502
0.000492
0.000460
0.000505
0.000467
0.000480
0.000492
0.000467
0.000495
0.000477
0.000500
0.000472
0.000460
0.000495
0.000452
0.000447
0.000482
0.000502
0.000485
0.000482
0.000502
0.000472
0.000457
0.000502
0.000490
0.000472
0.000500
0.000517
0.000467
0.000497
0.000495
0.000482
0.000500
0.000507
0.000482
0.000492
0.000457
0.000495
0.000470
0.000490
0.000472
0.000485
0.000465
0.000512
0.000470
0.000457
0.000492
0.000482
0.000477
0.000507
0.000497
0.000482
0.000480
0.000492
0.000480
0.000492
0.000510
0.000500
0.000517
0.000505
0.000500
0.000475
0.000500
0.000532
0.000470
0.000462
0.000480
0.000460
0.000487
0.000487
0.000490
0.000477
0.000490
0.000490
0.000485
0.000472
0.000485
0.000510
0.000485
0.000500
0.000482
0.000470
0.000480
0.000497
0.000457
0.000482
0.000472
0.000470
0.000462
0.000477
0.000457
0.000445
0.000445
0.000485
0.000462
0.000440
0.000497
0.000487
0.000430
0.000505
0.000510
0.000455
0.000475
0.000480
0.000435
0.000462
0.000485
0.000472
0.000447
0.000467
0.000482
0.000440
0.000477
0.000497
0.000462
0.000460
0.000487
0.000460
0.000445
0.000482
0.000492
0.000452
0.000475
0.000505
0.000457
0.000447
0.000497
0.000487
0.000480
0.000497
0.000525
0.000460
0.000482
0.000517
0.000460
0.000470
0.000500
0.000470
0.000450
0.000480
0.000472
0.000467
0.000487
0.000522
0.000495
0.000452
0.000470
0.000500
0.000425
0.000500
0.000490
0.000457
0.000447
0.000492
0.000462
0.000462
0.000502
0.000477
0.000490
0.000492
0.000497
0.000480
0.000440
0.000517
0.000472
0.000465
0.000502
0.000520
0.000450
0.000505
0.000510
0.000470
0.000480
0.000480
0.000475
0.000450
0.000490
0.000482
0.000460
0.000467
0.000490
0.000437
0.000462
0.000512
0.000482
0.000470
0.000480
0.000512
0.000462
0.000470
0.000495
0.000445
0.000490
0.000510
0.000490
0.000477
0.000500
0.000465
0.000462
0.000492
0.000490
0.000475
0.000460
0.000515
0.000477
0.000470
0.000495
0.000485
0.000447
0.000490
0.000490
0.000432
0.000485
0.000482
0.000487
0.000475
0.000490
0.000505
0.000465
0.000502
0.000512
0.000475
0.000472
0.000510
0.000470
0.000442
0.000492
0.000505
0.000460
0.000462
0.000507
0.000455
0.000465
0.000505
0.000475
0.000462
0.000492
0.000482
0.000467
0.000487
0.000490
0.000432
0.000497
0.000540
0.000492
0.000495
0.000495
0.000512
0.000462
0.000462
0.000492
0.000467
0.000472
0.000462
0.000480
0.000445
0.000445
0.000460
0.000425
0.000502
0.000465
0.000445
0.000487
0.000490
0.000462
0.000472
0.000507
0.000502
0.000465
0.000485
0.000507
0.000487
0.000495
0.000515
0.000482
0.000457
0.000482
0.000485
0.000450
0.000482
0.000467
0.000435
0.000470
0.000492
0.000480
0.000472
0.000505
0.000477
0.000457
0.000492
0.000505
0.000455
0.000482
0.000507
0.000487
0.000465
0.000512
0.000505
0.000440
0.000480
0.000470
0.000475
0.000472
0.000495
0.000500
0.000455
0.000490
0.000482
0.000460
0.000487
0.000500
0.000462
0.000500
0.000502
0.000465
0.000490
0.000467
0.000477
0.000487
0.000482
0.000482
0.000485
0.000457
0.000477
0.000455
0.000452
0.000487
0.000485
0.000455
0.000500
0.000485
0.000460
0.000492
0.000505
0.000487
0.000502
0.000520
0.000482
0.000460
0.000410
0.000447
0.000442
0.000442
0.000527
0.000552
0.000522
0.000555
0.000525
0.000437
0.000482
0.000467
0.000475
0.000540
0.000505
0.000457
0.000407
0.000405
0.000432
0.000415
0.000500
0.000587
0.000597
0.000572
0.000540
0.000470
0.000412
0.000427
0.000407
0.000450
0.000505
0.000535
0.000527
0.000502
0.000530
0.000462
0.000497
0.000527
0.000507
0.000455
0.000405
0.000417
0.000377
0.000375
0.000447
0.000480
0.000472
0.000515
0.000497
0.000452
0.000480
0.000487
0.000502
0.000530
0.000610
0.000585
0.000555
0.000535
0.000442
0.000367
0.000382
0.000422
0.000407
0.000460
0.000490
0.000425
0.000427
0.000450
0.000480
0.000555
0.000617
0.000622
0.000542
0.000417
0.000395
0.000330
0.000272
0.000337
0.000352
0.000330
0.000352
0.000365
0.000387
0.000465
0.000577
0.000685
0.000717
0.000680
0.000647
0.000525
0.000527
0.000587
0.000557
0.000555
0.000567
0.000500
0.000475
0.000440
0.000440
0.000475
0.000500
0.000507
0.000445
0.000385
0.000382
0.000370
0.000365
0.000392
0.000460
0.000487
0.000537
0.000662
0.000650
0.000655
0.000642
0.000505
0.000452
0.000305
0.000185
0.000130
0.000095
0.000140
0.000187
0.000270
0.000427
0.000542
0.000677
0.000825
0.000930
0.000990
0.001047
0.000985
0.000820
0.000622
0.000417
0.000180
-0.000087
-0.000255
-0.000455
-0.000675
-0.000892
-0.001150
-0.001424
-0.001767
-0.001977
-0.002217
-0.002441
-0.002621
-0.002846
-0.003096
-0.003326
-0.003581
-0.003826
-0.003933
-0.004008
-0.004018
-0.003878
-0.003666
-0.003376
-0.003019
-0.002734
-0.002526
-0.002364
-0.002259
-0.002132
-0.002107
-0.002072
-0.002039
-0.002112
-0.002212
-0.002271
-0.002259
-0.002299
-0.002209
-0.002097
-0.002047
-0.001977
-0.001932
-0.001939
-0.001929
-0.001837
-0.001772
-0.001644
-0.001547
-0.001437
-0.001389
-0.001372
-0.001282
-0.001327
-0.001392
-0.001407
-0.001409
-0.001394
-0.001342
-0.001209
-0.001147
-0.001062
-0.001002
-0.000967
-0.001012
-0.001060
-0.001122
-0.001207
-0.001219
-0.001217
-0.001189
-0.001077
-0.000947
-0.000810
-0.000692
-0.000550
-0.000490
-0.000537
-0.000595
-0.000652
-0.000802
-0.001000
-0.001080
-0.001222
-0.001292
-0.001262
-0.001174
-0.001127
-0.001020
-0.000845
-0.000720
-0.000615
-0.000490
-0.000387
-0.000320
-0.000277
-0.000310
-0.000395
-0.000537
-0.000640
-0.000857
-0.000985
-0.001015
-0.001017
-0.000995
-0.000910
-0.000775
-0.000765
-0.000655
-0.000535
-0.000445
-0.000365
-0.000287
-0.000250
-0.000270
-0.000295
-0.000330
-0.000437
-0.000550
-0.000622
-0.000732
-0.000812
-0.000867
-0.000922
-0.000887
-0.000860
-0.000775
-0.000685
-0.000575
-0.000417
-0.000292
-0.000200
-0.000152
-0.000145
-0.000165
-0.000227
-0.000257
-0.000385
-0.000482
-0.000542
-0.000637
-0.000665
-0.000612
-0.000597
-0.000515
-0.000400
-0.000345
-0.000317
-0.000300
-0.000260
-0.000292
-0.000310
-0.000300
-0.000315
-0.000415
-0.000405
-0.000415
-0.000450
-0.000420
-0.000365
-0.000367
-0.000362
-0.000350
-0.000342
-0.000342
-0.000345
-0.000282
-0.000267
-0.000247
-0.000210
-0.000232
-0.000242
-0.000230
-0.000185
-0.000242
-0.000155
-0.000155
-0.000235
-0.000247
-0.000305
-0.000337
-0.000392
-0.000432
-0.000472
-0.000525
-0.000502
-0.000427
-0.000350
-0.000327
-0.000230
-0.000235
-0.000227
-0.000157
-0.000140
-0.000135
-0.000107
-0.000087
-0.000112
-0.000152
-0.000180
-0.000232
-0.000292
-0.000290
-0.000265
-0.000285
-0.000267
-0.000247
-0.000265
-0.000275
-0.000252
-0.000220
-0.000207
-0.000140
-0.000085
-0.000053
-0.000072
-0.000005
0.000015
-0.000023
-0.000025
-0.000082
-0.000165
-0.000232
-0.000347
-0.000472
-0.000470
-0.000487
-0.000482
-0.000395
-0.000290
-0.000195
-0.000122
-0.000028
0.000035
0.000090
0.000147
0.000180
0.000155
0.000092
0.000062
-0.000045
-0.000187
-0.000235
-0.000287
-0.000375
-0.000385
-0.000410
-0.000422
-0.000367
-0.000260
-0.000165
-0.000040
0.000055
0.000147
0.000167
0.000155
0.000127
0.000072
-0.000015
-0.000067
-0.000185
-0.000310
-0.000407
-0.000495
-0.000555
-0.000505
-0.000422
-0.000322
-0.000195
-0.000072
0.000037
0.000107
0.000117
0.000157
0.000105
0.000060
0.000020
-0.000033
-0.000107
-0.000137
-0.000200
-0.000222
-0.000192
-0.000195
-0.000197
-0.000102
-0.000058
-0.000025
-0.000000
0.000055
0.000060
0.000032
0.000025
0.000017
-0.000062
-0.000105
-0.000095
-0.000132
-0.000155
-0.000120
-0.000150
-0.000147
-0.000100
-0.000075
-0.000112
-0.000070
-0.000070
-0.000107
-0.000152
-0.000110
-0.000140
-0.000132
-0.000102
-0.000060
-0.000050
0.000002
0.000057
0.000105
0.000140
0.000190
0.000182
0.000167
0.000142
0.000097
0.000022
-0.000077
-0.000092
-0.000167
-0.000185
-0.000102
-0.000105
-0.000058
-0.000023
0.000015
0.000035
0.000045
0.000097
0.000065
0.000037
0.000030
-0.000023
-0.000072
-0.000117
-0.000152
-0.000245
-0.000232
-0.000160
-0.000132
-0.000077
0.000012
0.000090
0.000112
0.000162
0.000190
0.000210
0.000155
0.000122
0.000112
0.000040
-0.000005
-0.000003
-0.000087
-0.000125
-0.000080
-0.000112
-0.000043
0.000002
0.000032
0.000065
0.000037
0.000040
0.000007
-0.000023
-0.000028
-0.000048
-0.000090
-0.000100
-0.000122
-0.000135
-0.000097
-0.000008
0.000040
0.000092
0.000177
0.000195
0.000247
0.000277
0.000282
0.000275
0.000230
0.000165
0.000095
0.000037
-0.000018
-0.000080
-0.000085
-0.000090
-0.000067
-0.000040
-0.000018
0.000035
0.000072
0.000110
0.000117
0.000105
0.000120
0.000102
0.000077
0.000042
0.000007
0.000010
-0.000003
-0.000018
-0.000000
0.000030
0.000027
0.000070
0.000107
0.000105
0.000147
0.000145
0.000095
0.000097
0.000075
0.000030
0.000040
0.000015
0.000012
0.000047
0.000065
0.000095
0.000105
0.000070
0.000105
0.000090
0.000085
0.000137
0.000105
0.000062
0.000052
-0.000015
-0.000030
-0.000023
-0.000062
-0.000005
0.000010
0.000037
0.000037
0.000082
0.000125
0.000140
0.000142
0.000115
0.000120
0.000042
-0.000003
-0.000025
-0.000100
-0.000095
-0.000107
-0.000072
-0.000053
-0.000000
-0.000003
0.000002
0.000027
0.000075
0.000107
0.000100
0.000140
0.000162
0.000142
0.000112
0.000120
0.000042
0.000007
0.000002
0.000015
-0.000000
-0.000010
0.000050
0.000080
0.000127
0.000187
0.000192
0.000232
0.000210
0.000180
0.000115
0.000115
0.000082
0.000050
0.000052
0.000072
0.000037
0.000087
0.000102
0.000125
0.000140
0.000187
0.000212
0.000197
0.000192
0.000190
0.000152
0.000095
0.000062
0.000060
-0.000008
0.000007
0.000025
0.000047
0.000052
0.000062
0.000092
0.000115
0.000152
0.000155
0.000177
0.000155
0.000167
0.000122
0.000080
0.000140
0.000067
0.000070
0.000090
0.000105
0.000127
0.000140
0.000182
0.000202
0.000217
0.000240
0.000212
0.000205
0.000177
0.000190
0.000155
0.000097
0.000097
0.000060
0.000052
0.000070
0.000072
0.000097
0.000127
0.000172
0.000197
0.000227
0.000290
0.000300
0.000305
0.000275
0.000277
0.000207
0.000172
0.000145
0.000110
0.000095
0.000102
0.000112
0.000117
0.000157
0.000142
0.000207
0.000232
0.000247
0.000207
0.000197
0.000167
0.000130
0.000075
0.000007
0.000027
0.000012
-0.000010
0.000027
0.000062
0.000112
0.000122
0.000197
0.000215
0.000255
0.000280
0.000252
0.000250
0.000230
0.000172
0.000165
0.000172
0.000140
0.000090
0.000092
0.000140
0.000142
0.000150
0.000180
0.000202
0.000230
0.000237
0.000252
0.000260
0.000240
0.000227
0.000192
0.000145
0.000112
0.000077
0.000070
0.000070
0.000087
0.000100
0.000120
0.000137
0.000152
0.000182
0.000200
0.000167
0.000175
0.000175
0.000165
0.000167
0.000155
0.000160
0.000145
0.000152
0.000177
0.000172
0.000182
0.000207
0.000197
0.000182
0.000210
0.000217
0.000225
0.000187
0.000197
0.000192
0.000187
0.000170
0.000200
0.000200
0.000207
0.000185
0.000177
0.000162
0.000190
0.000175
0.000175
0.000172
0.000167
0.000192
0.000152
0.000172
0.000165
0.000130
0.000150
0.000120
0.000127
0.000127
0.000152
0.000157
0.000165
0.000170
0.000157
0.000185
0.000212
0.000200
0.000210
0.000180
0.000197
0.000177
0.000110
0.000162
0.000152
0.000137
0.000197
0.000210
0.000232
0.000210
0.000237
0.000217
0.000240
0.000222
0.000220
0.000197
0.000192
0.000200
0.000180
0.000150
0.000172
0.000150
0.000145
0.000170
0.000160
0.000152
0.000202
0.000197
0.000230
0.000242
0.000247
0.000275
0.000235
0.000225
0.000237
0.000187
0.000167
0.000152
0.000145
0.000150
0.000190
0.000182
0.000190
0.000237
0.000250
0.000212
0.000245
0.000202
0.000192
0.000187
0.000170
0.000180
0.000190
0.000170
0.000217
0.000167
0.000140
0.000177
0.000182
0.000160
0.000185
0.000160
0.000172
0.000182
0.000185
0.000177
0.000210
0.000187
0.000167
0.000202
0.000235
0.000227
0.000242
0.000245
0.000245
0.000207
0.000212
0.000245
0.000227
0.000257
0.000235
0.000222
0.000262
0.000227
0.000247
0.000212
0.000205
0.000235
0.000205
0.000202
0.000265
0.000215
0.000232
0.000262
0.000247
0.000212
0.000230
0.000192
0.000167
0.000192
0.000192
0.000187
0.000185
0.000197
0.000207
0.000212
0.000225
0.000252
0.000230
0.000247
0.000295
0.000222
0.000212
0.000227
0.000237
0.000230
0.000212
0.000235
0.000235
0.000217
0.000225
0.000217
0.000190
0.000190
0.000197
0.000152
0.000177
0.000177
0.000165
0.000205
0.000245
0.000237
0.000232
0.000267
0.000290
0.000255
0.000282
0.000295
0.000280
0.000267
0.000300
0.000317
0.000285
0.000285
0.000275
0.000220
0.000235
0.000217
0.000195
0.000177
0.000172
0.000135
0.000137
0.000145
0.000155
0.000147
0.000165
0.000205
0.000185
0.000162
0.000225
0.000220
0.000247
0.000265
0.000280
0.000247
0.000285
0.000280
0.000267
0.000230
0.000245
0.000212
0.000242
0.000235
0.000240
0.000242
0.000227
0.000237
0.000250
0.000242
0.000280
0.000277
0.000242
0.000267
0.000275
0.000265
0.000267
0.000297
0.000255
0.000232
0.000245
0.000247
0.000235
0.000237
0.000242
0.000232
0.000235
0.000272
0.000300
0.000247
0.000320
0.000315
0.000275
0.000295
0.000302
0.000300
0.000270
0.000282
0.000260
0.000217
0.000232
0.000237
0.000202
0.000232
0.000262
0.000230
0.000265
0.000250
0.000252
0.000260
0.000280
0.000290
0.000285
0.000312
0.000342
0.000305
0.000312
0.000325
0.000300
0.000292
0.000307
0.000272
0.000225
0.000235
0.000262
0.000210
0.000235
0.000257
0.000232
0.000260
0.000285
0.000320
0.000275
0.000282
0.000302
0.000287
0.000250
0.000332
0.000295
0.000247
0.000270
0.000247
0.000267
0.000245
0.000255
0.000240
0.000255
0.000260
0.000260
0.000235
0.000275
0.000287
0.000255
0.000262
0.000290
0.000265
0.000220
0.000250
0.000207
0.000187
0.000255
0.000247
0.000270
0.000292
0.000277
0.000272
0.000265
0.000267
0.000272
0.000227
0.000270
0.000302
0.000295
0.000277
0.000342
0.000315
0.000305
0.000315
0.000310
0.000300
0.000290
0.000310
0.000245
0.000262
0.000275
0.000242
0.000205
0.000215
0.000237
0.000227
0.000280
0.000302
0.000220
0.000267
0.000290
0.000302
0.000277
0.000295
0.000322
0.000317
0.000302
0.000337
0.000305
0.000287
0.000312
0.000290
0.000282
0.000315
0.000312
0.000277
0.000285
0.000290
0.000287
0.000300
0.000285
0.000237
0.000257
0.000287
0.000292
0.000287
0.000292
0.000290
0.000282
0.000257
0.000237
0.000230
0.000245
0.000237
0.000262
0.000270
0.000290
0.000292
0.000260
0.000280
0.000320
0.000300
0.000302
0.000312
0.000315
0.000290
0.000320
0.000307
0.000307
0.000277
0.000290
0.000240
0.000230
0.000240
0.000262
0.000247
0.000272
0.000297
0.000307
0.000310
0.000347
0.000330
0.000325
0.000310
0.000325
0.000270
0.000300
0.000302
0.000272
0.000252
0.000287
0.000260
0.000275
0.000295
0.000260
0.000272
0.000272
0.000265
0.000285
0.000312
0.000322
0.000315
0.000285
0.000332
0.000327
0.000325
0.000355
0.000327
0.000302
0.000290
0.000297
0.000240
0.000282
0.000272
0.000270
0.000270
0.000280
0.000325
0.000297
0.000327
0.000337
0.000337
0.000317
0.000325
0.000322
0.000277
0.000285
0.000280
0.000242
0.000257
0.000277
0.000245
0.000267
0.000275
0.000290
0.000275
0.000267
0.000275
0.000257
0.000292
0.000327
0.000262
0.000295
0.000292
0.000275
0.000262
0.000275
0.000285
0.000270
0.000302
0.000355
0.000342
0.000342
0.000357
0.000345
0.000345
0.000312
0.000300
0.000272
0.000260
0.000282
0.000290
0.000257
0.000290
0.000287
0.000277
0.000315
0.000317
0.000295
0.000337
0.000347
0.000305
0.000327
0.000332
0.000365
0.000330
0.000337
0.000340
0.000312
0.000297
0.000315
0.000312
0.000302
0.000312
0.000270
0.000262
0.000285
0.000292
0.000307
0.000312
0.000322
0.000297
0.000297
0.000305
0.000310
0.000295
0.000310
0.000312
0.000312
0.000317
0.000337
0.000352
0.000322
0.000325
0.000307
0.000300
0.000322
0.000305
0.000297
0.000315
0.000327
0.000337
0.000327
0.000370
0.000355
0.000325
0.000327
0.000297
0.000312
0.000307
0.000325
0.000362
0.000337
0.000335
0.000325
0.000320
0.000280
0.000275
0.000285
0.000297
0.000345
0.000302
0.000330
0.000367
0.000360
0.000317
0.000322
0.000327
0.000297
0.000315
0.000295
0.000325
0.000307
0.000317
0.000320
0.000275
0.000322
0.000327
0.000312
0.000342
0.000317
0.000307
0.000320
0.000325
0.000325
0.000302
0.000320
0.000300
0.000322
0.000290
0.000310
0.000282
0.000257
0.000327
0.000322
0.000317
0.000322
0.000330
0.000327
0.000345
0.000347
0.000327
0.000320
0.000320
0.000322
0.000312
0.000337
0.000332
0.000290
0.000297
0.000315
0.000310
0.000317
0.000350
0.000377
0.000342
0.000342
0.000340
0.000312
0.000337
0.000352
0.000350
0.000367
0.000367
0.000380
0.000340
0.000330
0.000345
0.000287
0.000282
0.000312
0.000285
0.000315
0.000320
0.000325
0.000322
0.000317
0.000340
0.000335
0.000312
0.000345
0.000352
0.000347
0.000355
0.000372
0.000330
0.000347
0.000342
0.000330
0.000290
0.000272
0.000275
0.000272
0.000277
0.000302
0.000297
0.000320
0.000335
0.000345
0.000355
0.000372
0.000350
0.000357
0.000362
0.000390
0.000342
0.000367
0.000350
0.000347
0.000360
0.000367
0.000312
0.000315
0.000325
0.000302
0.000310
0.000325
0.000347
0.000335
0.000332
0.000315
0.000302
0.000292
0.000287
0.000295
0.000305
0.000322
0.000315
0.000337
0.000335
0.000357
0.000365
0.000355
0.000372
0.000367
0.000365
0.000347
0.000367
0.000317
0.000310
0.000320
0.000305
0.000300
0.000290
0.000297
0.000305
0.000320
0.000320
0.000355
0.000325
0.000372
0.000355
0.000372
0.000377
0.000370
0.000350
0.000382
0.000360
0.000347
0.000355
0.000365
0.000325
0.000295
0.000305
0.000292
0.000305
0.000282
0.000330
0.000322
0.000297
0.000350
0.000335
0.000340
0.000357
0.000375
0.000367
0.000397
0.000410
0.000395
0.000377
0.000382
0.000365
0.000337
0.000352
0.000342
0.000340
0.000302
0.000307
0.000320
0.000305
0.000340
0.000342
0.000350
0.000347
0.000350
0.000357
0.000372
0.000380
0.000377
0.000405
0.000395
0.000367
0.000375
0.000365
0.000360
0.000355
0.000335
0.000335
0.000320
0.000305
0.000322
0.000317
0.000315
0.000315
0.000335
0.000350
0.000322
0.000342
0.000360
0.000370
0.000385
0.000397
0.000407
0.000390
0.000377
0.000370
0.000372
0.000380
0.000352
0.000320
0.000335
0.000315
0.000327
0.000335
0.000357
0.000342
0.000365
0.000362
0.000392
0.000395
0.000342
0.000342
0.000360
0.000350
0.000372
0.000365
0.000380
0.000362
0.000327
0.000347
0.000335
0.000302
0.000317
0.000347
0.000320
0.000335
0.000355
0.000350
0.000332
0.000307
0.000332
0.000320
0.000317
0.000340
0.000352
0.000357
0.000382
0.000335
0.000370
0.000352
0.000382
0.000365
0.000390
0.000380
0.000365
0.000342
0.000367
0.000345
0.000340
0.000332
0.000337
0.000312
0.000300
0.000297
0.000270
0.000282
0.000297
0.000310
0.000372
0.000350
0.000375
0.000337
0.000367
0.000405
0.000390
0.000397
0.000400
0.000397
0.000360
0.000392
0.000360
0.000312
0.000312
0.000347
0.000337
0.000315
0.000375
0.000357
0.000390
0.000402
0.000417
0.000380
0.000392
0.000380
0.000397
0.000370
0.000395
0.000370
0.000357
0.000375
0.000362
0.000330
0.000342
0.000342
0.000332
0.000327
0.000352
0.000320
0.000317
0.000315
0.000340
0.000312
0.000292
0.000327
0.000305
0.000317
0.000355
0.000357
0.000345
0.000362
0.000387
0.000387
0.000382
0.000372
0.000372
0.000352
0.000360
0.000330
0.000320
0.000310
0.000312
0.000295
0.000287
0.000325
0.000302
0.000302
0.000347
0.000355
0.000380
0.000375
0.000392
0.000377
0.000372
0.000385
0.000385
0.000337
0.000370
0.000365
0.000357
0.000360
0.000382
0.000357
0.000370
0.000342
0.000357
0.000355
0.000375
0.000385
0.000397
0.000387
0.000395
0.000352
0.000342
0.000345
0.000365
0.000367
0.000342
0.000360
0.000352
0.000345
0.000377
0.000360
0.000370
0.000382
0.000365
0.000365
0.000402
0.000400
0.000382
0.000375
0.000375
0.000367
0.000327
0.000342
0.000357
0.000322
0.000370
0.000385
0.000380
0.000377
0.000420
0.000392
0.000415
0.000420
0.000420
0.000422
0.000405
0.000420
0.000377
0.000375
0.000382
0.000347
0.000350
0.000357
0.000352
0.000350
0.000357
0.000330
0.000337
0.000342
0.000355
0.000350
0.000390
0.000397
0.000385
0.000377
0.000400
0.000372
0.000390
0.000377
0.000382
0.000367
0.000382
0.000390
0.000360
0.000360
0.000347
0.000337
0.000327
0.000345
0.000367
0.000367
0.000362
0.000390
0.000385
0.000390
0.000410
0.000407
0.000390
0.000405
0.000402
0.000365
0.000380
0.000352
0.000360
0.000357
0.000367
0.000352
0.000352
0.000360
0.000357
0.000365
0.000365
0.000380
0.000390
0.000357
0.000387
0.000380
0.000347
0.000367
0.000392
0.000360
0.000405
0.000392
0.000367
0.000390
0.000415
0.000410
0.000402
0.000362
0.000365
0.000345
0.000340
0.000357
0.000362
0.000335
0.000392
0.000402
0.000390
0.000425
0.000427
0.000427
0.000410
0.000430
0.000390
0.000365
0.000375
0.000335
0.000320
0.000310
0.000335
0.000320
0.000317
0.000342
0.000310
0.000300
0.000370
0.000345
0.000360
0.000380
0.000390
0.000357
0.000357
0.000370
0.000347
0.000335
0.000360
0.000370
0.000360
0.000360
0.000375
0.000370
0.000350
0.000370
0.000367
0.000352
0.000390
0.000387
0.000365
0.000360
0.000372
0.000382
0.000370
0.000385
0.000390
0.000345
0.000350
0.000322
0.000335
0.000327
0.000330
0.000342
0.000340
0.000337
0.000355
0.000337
0.000355
0.000352
0.000357
0.000365
0.000380
0.000390
0.000367
0.000375
0.000362
0.000320
0.000355
0.000352
0.000357
0.000362
0.000372
0.000390
0.000380
0.000412
0.000430
0.000400
0.000430
0.000462
0.000415
0.000387
0.000415
0.000405
0.000375
0.000387
0.000387
0.000342
0.000380
0.000362
0.000352
0.000350
0.000335
0.000357
0.000375
0.000365
0.000372
0.000372
0.000355
0.000417
0.000387
0.000362
0.000415
0.000375
0.000380
0.000347
0.000350
0.000365
0.000360
0.000375
0.000375
0.000390
0.000362
0.000385
0.000367
0.000355
0.000367
0.000335
0.000340
0.000390
0.000355
0.000385
0.000392
0.000400
0.000430
0.000440
0.000430
0.000435
0.000455
0.000427
0.000410
0.000415
0.000417
0.000412
0.000392
0.000360
0.000382
0.000375
0.000377
0.000367
0.000357
0.000345
0.000400
0.000367
0.000400
0.000392
0.000395
0.000415
0.000420
0.000405
0.000395
0.000402
0.000397
0.000375
0.000400
0.000402
0.000390
0.000385
0.000370
0.000372
0.000365
0.000387
0.000380
0.000365
0.000390
0.000387
0.000362
0.000385
0.000375
0.000342
0.000370
0.000387
0.000385
0.000370
0.000387
0.000390
0.000385
0.000370
0.000400
0.000390
0.000425
0.000407
0.000432
0.000412
0.000430
0.000430
0.000410
0.000375
0.000382
0.000370
0.000365
0.000350
0.000332
0.000312
0.000330
0.000357
0.000345
0.000330
0.000352
0.000365
0.000335
0.000382
0.000407
0.000380
0.000380
0.000407
0.000395
0.000402
0.000395
0.000375
0.000352
0.000355
0.000390
0.000370
0.000407
0.000380
0.000402
0.000380
0.000412
0.000415
0.000387
0.000405
0.000417
0.000420
0.000372
0.000405
0.000377
0.000342
0.000382
0.000355
0.000367
0.000360
0.000382
0.000402
0.000375
0.000395
0.000415
0.000382
0.000397
0.000392
0.000380
0.000367
0.000390
0.000385
0.000367
0.000387
0.000395
0.000377
0.000412
0.000410
0.000412
0.000392
0.000402
0.000395
0.000375
0.000382
0.000392
0.000380
0.000387
0.000372
0.000355
0.000370
0.000340
0.000340
0.000350
0.000365
0.000380
0.000375
0.000387
0.000387
0.000422
0.000387
0.000405
0.000392
0.000370
0.000407
0.000405
0.000387
0.000435
0.000402
0.000372
0.000382
0.000397
0.000370
0.000362
0.000385
0.000370
0.000390
0.000392
0.000380
0.000382
0.000380
0.000407
0.000400
0.000387
0.000432
0.000420
0.000402
0.000425
0.000385
0.000375
0.000380
0.000380
0.000387
0.000395
0.000372
0.000382
0.000370
0.000402
0.000397
0.000425
0.000422
0.000447
0.000430
0.000437
0.000432
0.000412
0.000425
0.000457
0.000415
0.000405
0.000402
0.000410
0.000380
0.000382
0.000397
0.000390
0.000372
0.000362
0.000362
0.000360
0.000357
0.000385
0.000377
0.000392
0.000420
0.000407
0.000415
0.000410
0.000387
0.000405
0.000397
0.000402
0.000417
0.000365
0.000402
0.000402
0.000385
0.000417
0.000392
0.000357
0.000385
0.000397
0.000345
0.000400
0.000375
0.000390
0.000387
0.000417
0.000415
0.000415
0.000395
0.000405
0.000405
0.000390
0.000412
0.000412
0.000405
0.000400
0.000417
0.000425
0.000402
0.000420
0.000390
0.000402
0.000375
0.000362
0.000375
0.000382
0.000362
0.000375
0.000347
0.000390
0.000385
0.000382
0.000385
0.000412
0.000397
0.000410
0.000422
0.000407
0.000435
0.000430
0.000427
0.000422
0.000410
0.000432
0.000402
0.000402
0.000400
0.000375
0.000355
0.000385
0.000370
0.000357
0.000382
0.000375
0.000377
0.000420
0.000430
0.000435
0.000440
0.000442
0.000447
0.000422
0.000432
0.000435
0.000417
0.000410
0.000400
0.000375
0.000367
0.000387
0.000347
0.000372
0.000390
0.000382
0.000382
0.000385
0.000357
0.000365
0.000362
0.000400
0.000402
0.000402
0.000410
0.000415
0.000405
0.000422
0.000427
0.000447
0.000432
0.000435
0.000452
0.000435
0.000425
0.000422
0.000392
0.000407
0.000385
0.000357
0.000370
0.000395
0.000357
0.000390
0.000380
0.000372
0.000400
0.000410
0.000410
0.000420
0.000417
0.000422
0.000430
0.000402
0.000402
0.000425
0.000372
0.000410
0.000412
0.000365
0.000360
0.000365
0.000350
0.000347
0.000350
0.000342
0.000355
0.000382
0.000367
0.000390
0.000372
0.000425
0.000422
0.000422
0.000442
0.000437
0.000420
0.000437
0.000442
0.000457
0.000432
0.000445
0.000390
0.000412
0.000405
0.000375
0.000375
0.000387
0.000402
0.000417
0.000392
0.000445
0.000400
0.000392
0.000410
0.000422
0.000415
0.000417
0.000420
0.000415
0.000422
0.000425
0.000395
0.000422
0.000405
0.000402
0.000385
0.000395
0.000382
0.000390
0.000385
0.000425
0.000412
0.000417
0.000427
0.000425
0.000412
0.000422
0.000427
0.000442
0.000430
0.000432
0.000445
0.000435
0.000450
0.000455
0.000450
0.000432
0.000415
0.000420
0.000390
0.000402
0.000365
0.000380
0.000385
0.000397
0.000397
0.000410
0.000412
0.000432
0.000440
0.000477
0.000435
0.000445
0.000460
0.000430
0.000395
0.000397
0.000390
0.000387
0.000382
0.000395
0.000372
0.000387
0.000397
0.000407
0.000407
0.000422
0.000437
0.000452
0.000427
0.000440
0.000405
0.000407
0.000402
0.000422
0.000397
0.000380
0.000377
0.000375
0.000367
0.000392
0.000380
0.000392
0.000415
0.000375
0.000367
0.000377
0.000360
0.000332
0.000355
0.000350
0.000355
0.000372
0.000387
0.000362
0.000375
0.000400
0.000402
0.000417
0.000415
0.000440
0.000435
0.000455
0.000427
0.000455
0.000425
0.000462
0.000440
0.000395
0.000412
0.000422
0.000390
0.000387
0.000410
0.000405
0.000405
0.000412
0.000410
0.000407
0.000390
0.000410
0.000392
0.000425
0.000430
0.000412
0.000442
0.000452
0.000437
0.000425
0.000430
0.000427
0.000390
0.000387
0.000397
0.000410
0.000370
0.000390
0.000420
0.000407
0.000412
0.000437
0.000405
0.000392
0.000435
0.000435
0.000427
0.000455
0.000437
0.000440
0.000420
0.000425
0.000377
0.000397
0.000405
0.000410
0.000425
0.000422
0.000437
0.000440
0.000422
0.000487
0.000460
0.000437
0.000445
0.000447
0.000422
0.000445
0.000467
0.000430
0.000452
0.000427
0.000420
0.000435
0.000415
0.000425
0.000425
0.000425
0.000410
0.000420
0.000410
0.000440
0.000425
0.000427
0.000475
0.000467
0.000440
0.000447
0.000445
0.000447
0.000452
0.000450
0.000422
0.000410
0.000395
0.000457
0.000415
0.000405
0.000417
0.000405
0.000402
0.000422
0.000402
0.000382
0.000420
0.000422
0.000372
0.000435
0.000430
0.000377
0.000410
0.000397
0.000420
0.000390
0.000392
0.000407
0.000412
0.000402
0.000392
0.000410
0.000395
0.000410
0.000415
0.000437
0.000407
0.000437
0.000415
0.000407
0.000412
0.000395
0.000375
0.000407
0.000410
0.000412
0.000412
0.000427
0.000395
0.000432
0.000445
0.000430
0.000445
0.000445
0.000427
0.000452
0.000430
0.000415
0.000427
0.000425
0.000417
0.000447
0.000432
0.000442
0.000425
0.000390
0.000412
0.000407
0.000342
0.000395
0.000380
0.000412
0.000400
0.000410
0.000412
0.000410
0.000420
0.000437
0.000435
0.000462
0.000470
0.000442
0.000442
0.000437
0.000430
0.000395
0.000422
0.000405
0.000405
0.000397
0.000387
0.000385
0.000397
0.000387
0.000347
0.000382
0.000375
0.000390
0.000400
0.000395
0.000437
0.000407
0.000420
0.000432
0.000397
0.000417
0.000412
0.000420
0.000417
0.000420
0.000405
0.000397
0.000387
0.000402
0.000397
0.000372
0.000417
0.000405
0.000392
0.000420
0.000427
0.000392
0.000417
0.000440
0.000435
0.000425
0.000427
0.000420
0.000385
0.000405
0.000410
0.000415
0.000432
0.000440
0.000435
0.000442
0.000455
0.000445
0.000412
0.000437
0.000415
0.000407
0.000422
0.000425
0.000395
0.000420
0.000410
0.000440
0.000412
0.000447
0.000445
0.000402
0.000422
0.000430
0.000410
0.000402
0.000415
0.000402
0.000422
0.000415
0.000405
0.000392
0.000377
0.000420
0.000400
0.000400
0.000427
0.000440
0.000412
0.000405
0.000407
0.000402
0.000397
0.000412
0.000440
0.000427
0.000422
0.000427
0.000410
0.000427
0.000420
0.000430
0.000425
0.000445
0.000455
0.000450
0.000445
0.000462
0.000420
0.000415
0.000427
0.000430
0.000415
0.000457
0.000412
0.000422
0.000420
0.000417
0.000450
0.000447
0.000447
0.000430
0.000442
0.000430
0.000422
0.000400
0.000422
0.000415
0.000402
0.000412
0.000412
0.000405
0.000390
0.000425
0.000407
0.000412
0.000422
0.000402
0.000447
0.000420
0.000447
0.000470
0.000417
0.000440
0.000405
0.000385
0.000422
0.000417
0.000390
0.000430
0.000415
0.000422
0.000445
0.000432
0.000445
0.000445
0.000447
0.000462
0.000440
0.000392
0.000422
0.000410
0.000405
0.000400
0.000415
0.000447
0.000455
0.000432
0.000407
0.000445
0.000405
0.000447
0.000400
0.000405
0.000422
0.000392
0.000402
0.000400
0.000390
0.000375
0.000395
0.000407
0.000412
0.000430
0.000427
0.000442
0.000450
0.000447
0.000435
0.000452
0.000455
0.000410
0.000437
0.000442
0.000427
0.000387
0.000435
0.000417
0.000415
0.000447
0.000397
0.000412
0.000390
0.000375
0.000397
0.000402
0.000422
0.000435
0.000430
0.000447
0.000442
0.000430
0.000415
0.000442
0.000425
0.000447
0.000425
0.000440
0.000430
0.000452
0.000465
0.000460
0.000460
0.000450
0.000450
0.000455
0.000435
0.000462
0.000417
0.000425
0.000450
0.000437
0.000435
0.000445
0.000452
0.000432
0.000422
0.000417
0.000407
0.000422
0.000410
0.000432
0.000432
0.000440
0.000415
0.000420
0.000432
0.000425
0.000415
0.000450
0.000442
0.000415
0.000422
0.000440
0.000422
0.000440
0.000430
0.000435
0.000430
0.000437
0.000432
0.000440
0.000430
0.000437
0.000405
0.000400
0.000427
0.000415
0.000400
0.000415
0.000425
0.000397
0.000387
0.000410
0.000415
0.000440
0.000420
0.000440
0.000420
0.000445
0.000422
0.000410
0.000407
0.000437
0.000397
0.000387
0.000440
0.000430
0.000442
0.000417
0.000430
0.000427
0.000402
0.000407
0.000422
0.000415
0.000402
0.000437
0.000432
0.000432
0.000447
0.000442
0.000402
0.000445
0.000437
0.000447
0.000445
0.000450
0.000442
0.000427
0.000437
0.000440
0.000440
0.000425
0.000390
0.000407
0.000425
0.000402
0.000400
0.000402
0.000420
0.000400
0.000405
0.000412
0.000417
0.000427
0.000435
0.000477
0.000477
0.000470
0.000492
0.000475
0.000482
0.000475
0.000490
0.000445
0.000450
0.000435
0.000430
0.000432
0.000452
0.000450
0.000447
0.000455
0.000445
0.000452
0.000447
0.000465
0.000465
0.000460
0.000442
0.000475
0.000437
0.000455
0.000415
0.000440
0.000432
0.000432
0.000445
0.000475
0.000462
0.000485
0.000480
0.000447
0.000425
0.000427
0.000405
0.000425
0.000457
0.000402
0.000422
0.000422
0.000387
0.000407
0.000402
0.000432
0.000432
0.000462
0.000452
0.000482
0.000440
0.000467
0.000462
0.000435
0.000432
0.000460
0.000440
0.000480
0.000430
0.000440
0.000430
0.000417
0.000437
0.000432
0.000422
0.000440
0.000427
0.000425
0.000435
0.000442
0.000415
0.000422
0.000432
0.000432
0.000462
0.000447
0.000465
0.000437
0.000455
0.000447
0.000445
0.000460
0.000455
0.000462
0.000440
0.000437
0.000445
0.000437
0.000422
0.000440
0.000405
0.000432
0.000420
0.000425
0.000417
0.000412
0.000427
0.000422
0.000440
0.000430
0.000422
0.000442
0.000435
0.000442
0.000425
0.000440
0.000420
0.000435
0.000442
0.000422
0.000435
0.000450
0.000445
0.000442
0.000430
0.000425
0.000427
0.000422
0.000417
0.000420
0.000435
0.000432
0.000420
0.000445
0.000417
0.000412
0.000435
0.000447
0.000445
0.000467
0.000437
0.000425
0.000452
0.000450
0.000425
0.000450
0.000455
0.000437
0.000437
0.000455
0.000450
0.000480
0.000430
0.000450
0.000462
0.000432
0.000437
0.000435
0.000430
0.000440
0.000442
0.000420
0.000430
0.000455
0.000432
0.000427
0.000435
0.000420
0.000430
0.000417
0.000435
0.000415
0.000442
0.000447
0.000430
0.000452
0.000442
0.000465
0.000407
0.000440
0.000447
0.000432
0.000435
0.000442
0.000440
0.000417
0.000440
0.000427
0.000432
0.000430
0.000437
0.000432
0.000425
0.000462
0.000452
0.000445
0.000472
0.000472
0.000420
0.000447
0.000460
0.000415
0.000432
0.000425
0.000417
0.000445
0.000445
0.000442
0.000427
0.000430
0.000442
0.000420
0.000412
0.000432
0.000410
0.000427
0.000425
0.000397
0.000430
0.000407
0.000420
0.000445
0.000402
0.000432
0.000435
0.000417
0.000420
0.000442
0.000420
0.000427
0.000445
0.000460
0.000437
0.000495
0.000447
0.000452
0.000457
0.000447
0.000477
0.000445
0.000445
0.000455
0.000435
0.000445
0.000445
0.000445
0.000437
0.000427
0.000450
0.000430
0.000457
0.000452
0.000437
0.000452
0.000455
0.000447
0.000435
0.000457
0.000445
0.000437
0.000432
0.000427
0.000435
0.000412
0.000435
0.000432
0.000435
0.000442
0.000422
0.000457
0.000427
0.000437
0.000422
0.000420
0.000432
0.000435
0.000420
0.000427
0.000435
0.000445
0.000460
0.000457
0.000445
0.000450
0.000455
0.000445
0.000435
0.000430
0.000425
0.000440
0.000417
0.000450
0.000425
0.000430
0.000407
0.000425
0.000422
0.000430
0.000405
0.000437
0.000447
0.000417
0.000435
0.000442
0.000417
0.000445
0.000420
0.000435
0.000425
0.000422
0.000405
0.000402
0.000415
0.000415
0.000420
0.000420
0.000417
0.000425
0.000415
0.000447
0.000432
0.000442
0.000445
0.000437
0.000442
0.000437
0.000437
0.000450
0.000425
0.000447
0.000457
0.000455
0.000457
0.000475
0.000445
0.000427
0.000432
0.000437
0.000417
0.000430
0.000405
0.000415
0.000402
0.000427
0.000402
0.000432
0.000442
0.000450
0.000427
0.000415
0.000430
0.000445
0.000430
0.000432
0.000430
0.000427
0.000457
0.000447
0.000405
0.000415
0.000402
0.000427
0.000407
0.000417
0.000407
0.000425
0.000425
0.000430
0.000447
0.000437
0.000452
0.000432
0.000447
0.000465
0.000452
0.000445
0.000450
0.000417
0.000445
0.000442
0.000440
0.000417
0.000402
0.000405
0.000410
0.000410
0.000435
0.000440
0.000427
0.000435
0.000445
0.000442
0.000435
0.000460
0.000435
0.000445
0.000430
0.000392
0.000432
0.000425
0.000422
0.000445
0.000432
0.000422
0.000462
0.000430
0.000455
0.000472
0.000430
0.000450
0.000445
0.000422
0.000422
0.000447
0.000437
0.000452
0.000437
0.000452
0.000425
0.000440
0.000457
0.000472
0.000457
0.000435
0.000467
0.000445
0.000440
0.000457
0.000432
0.000427
0.000422
0.000437
0.000462
0.000440
0.000450
0.000445
0.000447
0.000440
0.000447
0.000470
0.000465
0.000485
0.000465
0.000475
0.000450
0.000447
0.000462
0.000425
0.000460
0.000467
0.000455
0.000455
0.000447
0.000445
0.000422
0.000427
0.000442
0.000475
0.000467
0.000462
0.000460
0.000447
0.000442
0.000460
0.000450
0.000455
0.000440
0.000450
0.000435
0.000470
0.000415
0.000422
0.000415
0.000415
0.000410
0.000405
0.000455
0.000440
0.000367
0.000430
0.000427
0.000417
0.000455
0.000450
0.000462
0.000462
0.000495
0.000470
0.000475
0.000490
0.000470
0.000450
0.000437
0.000485
0.000445
0.000445
0.000432
0.000430
0.000422
0.000465
0.000450
0.000442
0.000422
0.000425
0.000420
0.000415
0.000437
0.000432
0.000435
0.000440
0.000445
0.000460
0.000417
0.000455
0.000430
0.000422
0.000430
0.000445
0.000415
0.000447
0.000440
0.000440
0.000435
0.000450
0.000437
0.000440
0.000452
0.000460
0.000452
0.000465
0.000492
0.000465
0.000455
0.000475
0.000452
0.000445
0.000470
0.000465
0.000490
0.000482
0.000470
0.000435
0.000452
0.000427
0.000442
0.000435
0.000427
0.000455
0.000440
0.000437
0.000465
0.000445
0.000435
0.000467
0.000467
0.000437
0.000437
0.000472
0.000440
0.000455
0.000450
0.000465
0.000445
0.000455
0.000442
0.000447
0.000440
0.000467
0.000410
0.000467
0.000450
0.000447
0.000460
0.000455
0.000412
0.000455
0.000425
0.000442
0.000427
0.000435
0.000462
0.000447
0.000460
0.000452
0.000452
0.000460
0.000457
0.000462
0.000442
0.000455
0.000482
0.000475
0.000480
0.000465
0.000437
0.000422
0.000410
0.000415
0.000442
0.000432
0.000475
0.000465
0.000425
0.000465
0.000447
0.000480
0.000470
0.000465
0.000465
0.000470
0.000457
0.000487
0.000460
0.000460
0.000465
0.000432
0.000437
0.000402
0.000412
0.000425
0.000400
0.000415
0.000410
0.000415
0.000430
0.000465
0.000442
0.000440
0.000430
0.000442
0.000420
0.000455
0.000450
0.000447
0.000475
0.000445
0.000447
0.000465
0.000415
0.000410
0.000442
0.000432
0.000447
0.000452
0.000470
0.000487
0.000467
0.000477
0.000450
0.000467
0.000435
0.000445
0.000452
0.000452
0.000455
0.000447
0.000465
0.000460
0.000452
0.000472
0.000475
0.000462
0.000457
0.000437
0.000432
0.000445
0.000432
0.000430
0.000432
0.000435
0.000455
0.000442
0.000445
0.000482
0.000460
0.000457
0.000480
0.000470
0.000477
0.000497
0.000475
0.000490
0.000472
0.000452
0.000457
0.000415
0.000447
0.000445
0.000410
0.000442
0.000432
0.000417
0.000402
0.000435
0.000407
0.000397
0.000412
0.000427
0.000402
0.000427
0.000432
0.000420
0.000422
0.000437
0.000445
0.000445
0.000447
0.000445
0.000447
0.000432
0.000452
0.000447
0.000457
0.000457
0.000470
0.000460
0.000425
0.000460
0.000425
0.000450
0.000457
0.000467
0.000465
0.000510
0.000472
0.000475
0.000500
0.000452
0.000452
0.000440
0.000472
0.000430
0.000447
0.000457
0.000440
0.000447
0.000450
0.000452
0.000422
0.000407
0.000415
0.000427
0.000427
0.000440
0.000425
0.000412
0.000432
0.000442
0.000442
0.000445
0.000470
0.000445
0.000425
0.000460
0.000475
0.000455
0.000447
0.000497
0.000455
0.000452
0.000472
0.000472
0.000457
0.000480
0.000480
0.000447
0.000470
0.000440
0.000427
0.000442
0.000442
0.000447
0.000410
0.000437
0.000447
0.000422
0.000432
0.000450
0.000422
0.000432
0.000460
0.000415
0.000427
0.000472
0.000415
0.000450
0.000455
0.000447
0.000462
0.000460
0.000470
0.000450
0.000420
0.000432
0.000462
0.000450
0.000457
0.000477
0.000425
0.000442
0.000487
0.000447
0.000495
0.000475
0.000457
0.000502
0.000460
0.000482
0.000457
0.000430
0.000480
0.000442
0.000420
0.000455
0.000455
0.000422
0.000450
0.000485
0.000457
0.000480
0.000480
0.000467
0.000445
0.000437
0.000437
0.000442
0.000437
0.000447
0.000420
0.000417
0.000445
0.000435
0.000387
0.000472
0.000450
0.000425
0.000452
0.000457
0.000455
0.000467
0.000455
0.000447
0.000450
0.000437
0.000490
0.000435
0.000467
0.000485
0.000445
0.000445
0.000427
0.000425
0.000427
0.000425
0.000432
0.000427
0.000437
0.000447
0.000412
0.000430
0.000442
0.000440
0.000435
0.000440
0.000432
0.000445
0.000450
0.000455
0.000450
0.000442
0.000452
0.000442
0.000427
0.000472
0.000442
0.000422
0.000452
0.000447
0.000425
0.000395
0.000440
0.000460
0.000435
0.000472
0.000445
0.000460
0.000442
0.000452
0.000430
0.000447
0.000465
0.000452
0.000462
0.000482
0.000457
0.000450
0.000450
0.000477
0.000462
0.000452
0.000465
0.000460
0.000447
0.000442
0.000447
0.000425
0.000440
0.000447
0.000420
0.000430
0.000447
0.000442
0.000445
0.000470
0.000467
0.000462
0.000457
0.000520
0.000480
0.000447
0.000492
0.000447
0.000437
0.000460
0.000440
0.000455
0.000427
0.000425
0.000430
0.000447
0.000437
0.000490
0.000447
0.000472
0.000450
0.000460
0.000470
0.000470
0.000457
0.000472
0.000475
0.000440
0.000445
0.000435
0.000412
0.000437
0.000400
0.000437
0.000427
0.000405
0.000465
0.000445
0.000440
0.000460
0.000452
0.000432
0.000437
0.000442
0.000442
0.000452
0.000455
0.000452
0.000462
0.000435
0.000442
0.000425
0.000432
0.000430
0.000445
0.000460
0.000447
0.000450
0.000435
0.000462
0.000487
0.000430
0.000470
0.000475
0.000475
0.000462
0.000477
0.000470
0.000470
0.000457
0.000467
0.000485
0.000440
0.000477
0.000447
0.000425
0.000465
0.000427
0.000410
0.000462
0.000435
0.000447
0.000442
0.000472
0.000457
0.000407
0.000447
0.000450
0.000417
0.000467
0.000485
0.000450
0.000435
0.000467
0.000430
0.000445
0.000477
0.000460
0.000460
0.000477
0.000465
0.000437
0.000440
0.000430
0.000422
0.000415
0.000432
0.000450
0.000417
0.000447
0.000467
0.000445
0.000440
0.000437
0.000437
0.000442
0.000420
0.000440
0.000437
0.000437
0.000455
0.000442
0.000417
0.000465
0.000457
0.000445
0.000472
0.000477
0.000455
0.000477
0.000460
0.000457
0.000442
0.000447
0.000450
0.000422
0.000422
0.000445
0.000442
0.000460
0.000472
0.000480
0.000467
0.000502
0.000467
0.000492
0.000482
0.000450
0.000445
0.000460
0.000440
0.000432
0.000422
0.000440
0.000415
0.000445
0.000407
0.000447
0.000425
0.000467
0.000467
0.000485
0.000485
0.000492
0.000487
0.000470
0.000467
0.000482
0.000460
0.000492
0.000455
0.000465
0.000462
0.000420
0.000427
0.000440
0.000435
0.000490
0.000425
0.000432
0.000470
0.000412
0.000397
0.000432
0.000432
0.000455
0.000460
0.000442
0.000465
0.000467
0.000472
0.000477
0.000487
0.000470
0.000475
0.000475
0.000480
0.000485
0.000457
0.000467
0.000492
0.000442
0.000455
0.000462
0.000425
0.000430
0.000440
0.000410
0.000450
0.000422
0.000460
0.000452
0.000450
0.000477
0.000460
0.000445
0.000460
0.000482
0.000405
0.000472
0.000482
0.000430
0.000462
0.000440
0.000427
0.000442
0.000432
0.000470
0.000435
0.000465
0.000465
0.000467
0.000455
0.000480
0.000427
0.000442
0.000457
0.000450
0.000425
0.000470
0.000445
0.000462
0.000462
0.000467
0.000465
0.000467
0.000445
0.000470
0.000480
0.000455
0.000487
0.000457
0.000450
0.000452
0.000462
0.000437
0.000472
0.000457
0.000450
0.000447
0.000430
0.000447
0.000435
0.000442
0.000445
0.000430
0.000445
0.000462
0.000457
0.000467
0.000467
0.000430
0.000472
0.000460
0.000450
0.000422
0.000432
0.000450
0.000452
0.000455
0.000475
0.000465
0.000440
0.000490
0.000452
0.000457
0.000457
0.000455
0.000452
0.000470
0.000462
0.000452
0.000485
0.000475
0.000452
0.000450
0.000455
0.000472
0.000442
0.000457
0.000460
0.000447
0.000440
0.000485
0.000475
0.000435
0.000460
0.000467
0.000447
0.000490
0.000455
0.000455
0.000475
0.000492
0.000465
0.000455
0.000455
0.000460
0.000427
0.000440
0.000442
0.000437
0.000402
0.000445
0.000440
0.000425
0.000467
0.000450
0.000460
0.000475
0.000495
0.000480
0.000470
0.000445
0.000452
0.000440
0.000415
0.000477
0.000455
0.000450
0.000467
0.000425
0.000437
0.000450
0.000422
0.000455
0.000447
0.000437
0.000445
0.000395
0.000435
0.000440
0.000447
0.000465
0.000457
0.000407
0.000442
0.000452
0.000435
0.000482
0.000465
0.000465
0.000497
0.000462
0.000477
0.000470
0.000445
0.000450
0.000445
0.000437
0.000462
0.000462
0.000445
0.000480
0.000487
0.000460
0.000475
0.000462
0.000475
0.000482
0.000447
0.000495
0.000452
0.000440
0.000447
0.000462
0.000432
0.000462
0.000437
0.000422
0.000417
0.000435
0.000395
0.000447
0.000450
0.000420
0.000460
0.000485
0.000480
0.000500
0.000487
0.000492
0.000477
0.000470
0.000492
0.000465
0.000465
0.000467
0.000447
0.000460
0.000447
0.000432
0.000455
0.000425
0.000420
0.000472
0.000487
0.000472
0.000462
0.000482
0.000480
0.000455
0.000465
0.000447
0.000452
0.000447
0.000450
0.000462
0.000472
0.000472
0.000450
0.000477
0.000460
0.000455
0.000455
0.000465
0.000427
0.000435
0.000417
0.000407
0.000432
0.000430
0.000412
0.000445
0.000470
0.000447
0.000477
0.000465
0.000437
0.000482
0.000457
0.000475
0.000482
0.000430
0.000455
0.000485
0.000450
0.000460
0.000430
0.000437
0.000437
0.000425
0.000407
0.000442
0.000445
0.000420
0.000465
0.000467
0.000455
0.000475
0.000457
0.000477
0.000465
0.000447
0.000450
0.000460
0.000442
0.000460
0.000460
0.000447
0.000442
0.000420
0.000447
0.000472
0.000447
0.000445
0.000460
0.000452
0.000460
0.000462
0.000425
0.000472
0.000427
0.000485
0.000462
0.000507
0.000455
0.000470
0.000485
0.000472
0.000462
0.000467
0.000482
0.000460
0.000435
0.000480
0.000452
0.000460
0.000460
0.000435
0.000460
0.000455
0.000452
0.000482
0.000480
0.000477
0.000497
0.000485
0.000502
0.000455
0.000457
0.000475
0.000455
0.000460
0.000470
0.000465
0.000457
0.000445
0.000430
0.000450
0.000470
0.000447
0.000480
0.000500
0.000462
0.000470
0.000480
0.000467
0.000460
0.000470
0.000435
0.000455
0.000475
0.000440
0.000470
0.000495
0.000447
0.000450
0.000462
0.000475
0.000457
0.000442
0.000465
0.000467
0.000432
0.000457
0.000470
0.000435
0.000487
0.000455
0.000450
0.000465
0.000472
0.000445
0.000435
0.000465
0.000455
0.000460
0.000457
0.000502
0.000470
0.000465
0.000507
0.000465
0.000417
0.000465
0.000487
0.000460
0.000480
0.000470
0.000447
0.000475
0.000457
0.000467
0.000475
0.000465
0.000477
0.000452
0.000445
0.000485
0.000442
0.000447
0.000502
0.000475
0.000435
0.000467
0.000460
0.000447
0.000470
0.000482
0.000467
0.000472
0.000467
0.000467
0.000465
0.000447
0.000472
0.000465
0.000457
0.000480
0.000460
0.000472
0.000487
0.000492
0.000472
0.000482
0.000490
0.000465
0.000470
0.000495
0.000462
0.000475
0.000470
0.000475
0.000430
0.000430
0.000462
0.000440
0.000450
0.000480
0.000480
0.000480
0.000467
0.000467
0.000452
0.000470
0.000462
0.000452
0.000442
0.000465
0.000457
0.000440
0.000445
0.000450
0.000430
0.000460
0.000470
0.000435
0.000450
0.000442
0.000450
0.000492
0.000465
0.000502
0.000482
0.000482
0.000482
0.000450
0.000472
0.000477
0.000460
0.000437
0.000457
0.000450
0.000445
0.000437
0.000455
0.000445
0.000440
0.000447
0.000445
0.000450
0.000450
0.000457
0.000445
0.000447
0.000462
0.000452
0.000462
0.000472
0.000432
0.000470
0.000455
0.000437
0.000437
0.000455
0.000465
0.000447
0.000460
0.000445
0.000462
0.000447
0.000472
0.000495
0.000440
0.000485
0.000472
0.000470
0.000475
0.000490
0.000455
0.000482
0.000460
0.000452
0.000467
0.000482
0.000482
0.000462
0.000450
0.000465
0.000472
0.000445
0.000485
0.000505
0.000440
0.000467
0.000475
0.000440
0.000470
0.000487
0.000460
0.000455
0.000467
t0(sec) = 0.000000E+0
dt(sec) = 4.000000E-10
F4:INSP "
DESCRIPTOR_NAME    : WAVEDESC           
TEMPLATE_NAME      : LECROY_2_3         
COMM_TYPE          : word               
COMM_ORDER         : HIFIRST            
WAVE_DESCRIPTOR    : 346                
USER_TEXT          : 0                  
RES_DESC1          : 0                  
TRIGTIME_ARRAY     : 0                  
RIS_TIME_ARRAY     : 0                  
RES_ARRAY1         : 0                  
WAVE_ARRAY_1       : 9932               
WAVE_ARRAY_2       : 0                  
RES_ARRAY2         : 0                  
RES_ARRAY3         : 0                  
INSTRUMENT_NAME    : LECROYHDO6104      
INSTRUMENT_NUMBER  : 6308               
TRACE_LABEL        :                    
RESERVED1          : 4966               
RESERVED2          : 0                  
WAVE_ARRAY_COUNT   : 4966               
PNTS_PER_SCREEN    : 5000               
FIRST_VALID_PNT    : 0                  
LAST_VALID_PNT     : 4965               
FIRST_POINT        : 0                  
SPARSING_FACTOR    : 1                  
SEGMENT_INDEX      : 0                  
SUBARRAY_COUNT     : 1                  
SWEEPS_PER_ACQ     : 200                
POINTS_PER_PAIR    : 0                  
PAIR_OFFSET        : 0                  
VERTICAL_GAIN      : 2.6238e-006        
VERTICAL_OFFSET    : 6.8001e-002        
MAX_VALUE          : 2.7366e+004        
MIN_VALUE          : 1.2377e+004        
NOMINAL_BITS       : 16                 
NOM_SUBARRAY_COUNT : 1                  
HORIZ_INTERVAL     : 4.0000e-010        
HORIZ_OFFSET       : -2.00000000e-007   
PIXEL_OFFSET       : -2.14000000e-007   
VERTUNIT           : Unit Name = V
HORUNIT            : Unit Name = S
HORIZ_UNCERTAINTY  : 1.0000e-012        
TRIGGER_TIME       : Date = APR 17, 2024, Time = 19:20:25.261639918
ACQ_DURATION       : 9.9991e+000        
RECORD_TYPE        : single_sweep       
PROCESSING_DONE    : no_processing      
RESERVED5          : 0                  
RIS_SWEEPS         : 1                  
TIMEBASE           : 200_ns/div         
VERT_COUPLING      : DC_50_Ohms         
PROBE_ATT          : 1.0000e+000        
FIXED_VERT_GAIN    : 5_mV/div           
BANDWIDTH_LIMIT    : off                
VERTICAL_VERNIER   : 1.0000e+000        
ACQ_VERT_OFFSET    : 0.0000e+000        
WAVE_SOURCE        : UNKNOWN            
"
0.000640
0.000658
0.000664
0.000656
0.000669
0.000669
0.000640
0.000653
0.000677
0.000661
0.000672
0.000695
0.000666
0.000679
0.000695
0.000679
0.000679
0.000640
0.000609
0.000648
0.000643
0.000653
0.000651
0.000669
0.000651
0.000638
0.000611
0.000635
0.000658
0.000627
0.000669
0.000672
0.000645
0.000640
0.000677
0.000643
0.000651
0.000679
0.000677
0.000708
0.000661
0.000619
0.000614
0.000582
0.000611
0.000601
0.000564
0.000540
0.000635
0.000648
0.000635
0.000674
0.000682
0.000658
0.000627
0.000651
0.000679
0.000672
0.000635
0.000666
0.000682
0.000679
0.000677
0.000679
0.000687
0.000635
0.000627
0.000658
0.000643
0.000648
0.000648
0.000661
0.000656
0.000674
0.000687
0.000685
0.000643
0.000664
0.000677
0.000685
0.000648
0.000674
0.000693
0.000664
0.000656
0.000598
0.000580
0.000601
0.000627
0.000651
0.000648
0.000677
0.000682
0.000658
0.000669
0.000679
0.000645
0.000645
0.000698
0.000664
0.000648
0.000679
0.000643
0.000617
0.000622
0.000640
0.000648
0.000658
0.000651
0.000679
0.000690
0.000682
0.000677
0.000693
0.000685
0.000653
0.000666
0.000677
0.000664
0.000677
0.000656
0.000658
0.000658
0.000643
0.000632
0.000630
0.000624
0.000674
0.000653
0.000640
0.000645
0.000672
0.000666
0.000661
0.000617
0.000614
0.000645
0.000658
0.000651
0.000669
0.000669
0.000664
0.000656
0.000653
0.000669
0.000643
0.000635
0.000624
0.000653
0.000622
0.000614
0.000624
0.000622
0.000603
0.000567
0.000593
0.000658
0.000640
0.000648
0.000645
0.000690
0.000679
0.000658
0.000674
0.000664
0.000674
0.000687
0.000669
0.000666
0.000609
0.000643
0.000648
0.000567
0.000504
0.000556
0.000617
0.000627
0.000651
0.000666
0.000674
0.000685
0.000672
0.000645
0.000645
0.000630
0.000653
0.000679
0.000687
0.000703
0.000682
0.000648
0.000658
0.000638
0.000635
0.000617
0.000593
0.000640
0.000674
0.000664
0.000664
0.000693
0.000664
0.000645
0.000640
0.000656
0.000653
0.000648
0.000643
0.000632
0.000585
0.000559
0.000590
0.000617
0.000627
0.000645
0.000653
0.000648
0.000656
0.000653
0.000622
0.000596
0.000585
0.000624
0.000653
0.000653
0.000674
0.000674
0.000666
0.000651
0.000666
0.000666
0.000682
0.000669
0.000669
0.000609
0.000564
0.000577
0.000651
0.000638
0.000632
0.000651
0.000661
0.000596
0.000619
0.000653
0.000630
0.000632
0.000617
0.000664
0.000606
0.000598
0.000685
0.000645
0.000645
0.000653
0.000672
0.000645
0.000661
0.000653
0.000666
0.000677
0.000661
0.000687
0.000669
0.000687
0.000693
0.000669
0.000690
0.000638
0.000601
0.000572
0.000564
0.000561
0.000614
0.000648
0.000638
0.000643
0.000648
0.000624
0.000622
0.000624
0.000690
0.000677
0.000664
0.000711
0.000640
0.000617
0.000651
0.000640
0.000656
0.000643
0.000664
0.000685
0.000677
0.000719
0.000695
0.000656
0.000651
0.000606
0.000572
0.000617
0.000645
0.000640
0.000627
0.000666
0.000656
0.000645
0.000666
0.000690
0.000677
0.000643
0.000682
0.000651
0.000664
0.000672
0.000685
0.000658
0.000651
0.000682
0.000658
0.000653
0.000651
0.000643
0.000666
0.000643
0.000622
0.000533
0.000546
0.000546
0.000540
0.000606
0.000622
0.000666
0.000596
0.000561
0.000614
0.000624
0.000559
0.000525
0.000601
0.000648
0.000630
0.000669
0.000708
0.000698
0.000653
0.000651
0.000677
0.000632
0.000619
0.000656
0.000643
0.000603
0.000569
0.000622
0.000640
0.000627
0.000632
0.000640
0.000669
0.000651
0.000645
0.000672
0.000685
0.000682
0.000682
0.000648
0.000679
0.000669
0.000643
0.000664
0.000664
0.000666
0.000658
0.000658
0.000656
0.000640
0.000648
0.000617
0.000648
0.000627
0.000669
0.000651
0.000635
0.000666
0.000664
0.000658
0.000661
0.000693
0.000656
0.000638
0.000643
0.000638
0.000658
0.000672
0.000661
0.000664
0.000687
0.000693
0.000679
0.000666
0.000648
0.000666
0.000672
0.000643
0.000666
0.000677
0.000653
0.000666
0.000656
0.000698
0.000635
0.000664
0.000661
0.000653
0.000653
0.000643
0.000656
0.000653
0.000669
0.000685
0.000677
0.000693
0.000645
0.000606
0.000588
0.000551
0.000585
0.000590
0.000674
0.000740
0.000740
0.000735
0.000727
0.000682
0.000685
0.000640
0.000682
0.000664
0.000638
0.000596
0.000630
0.000624
0.000614
0.000669
0.000740
0.000700
0.000729
0.000724
0.000703
0.000666
0.000679
0.000698
0.000685
0.000669
0.000648
0.000606
0.000580
0.000569
0.000590
0.000630
0.000724
0.000724
0.000708
0.000638
0.000585
0.000559
0.000559
0.000648
0.000682
0.000679
0.000690
0.000672
0.000677
0.000740
0.000805
0.000834
0.000858
0.000805
0.000661
0.000556
0.000509
0.000522
0.000543
0.000575
0.000614
0.000572
0.000588
0.000582
0.000606
0.000748
0.000882
0.000916
0.000897
0.000803
0.000732
0.000588
0.000517
0.000485
0.000441
0.000396
0.000375
0.000378
0.000393
0.000475
0.000598
0.000740
0.000842
0.000958
0.000994
0.000918
0.000840
0.000735
0.000685
0.000682
0.000638
0.000525
0.000417
0.000315
0.000302
0.000373
0.000567
0.000850
0.001021
0.001097
0.001039
0.000965
0.000908
0.000832
0.000758
0.000711
0.000674
0.000590
0.000441
0.000378
0.000391
0.000438
0.000569
0.000674
0.000729
0.000708
0.000753
0.000787
0.000847
0.000895
0.000910
0.000889
0.000782
0.000630
0.000380
0.000123
-0.000134
-0.000491
-0.001254
-0.002254
-0.003343
-0.004802
-0.006431
-0.008053
-0.009831
-0.011440
-0.012762
-0.014142
-0.015368
-0.016226
-0.016813
-0.017288
-0.017648
-0.018015
-0.017926
-0.017008
-0.015753
-0.015090
-0.014688
-0.014224
-0.014659
-0.015596
-0.015606
-0.014982
-0.014822
-0.014699
-0.014190
-0.013746
-0.013502
-0.012899
-0.011726
-0.011259
-0.011710
-0.011881
-0.011432
-0.011164
-0.010933
-0.010065
-0.009291
-0.009141
-0.009294
-0.009270
-0.009136
-0.009244
-0.009637
-0.009695
-0.009233
-0.009160
-0.009262
-0.008617
-0.007557
-0.007265
-0.007898
-0.008160
-0.007906
-0.007874
-0.007756
-0.007181
-0.006843
-0.006995
-0.007100
-0.007097
-0.007090
-0.006895
-0.006612
-0.006693
-0.007310
-0.007454
-0.006877
-0.006691
-0.006738
-0.006518
-0.006462
-0.006759
-0.006560
-0.005927
-0.005843
-0.006218
-0.006523
-0.006507
-0.006560
-0.006678
-0.006452
-0.006082
-0.006003
-0.006058
-0.005974
-0.005652
-0.005473
-0.005791
-0.005985
-0.005830
-0.005636
-0.005329
-0.004949
-0.004980
-0.005261
-0.005544
-0.005946
-0.006208
-0.005985
-0.005489
-0.005426
-0.005646
-0.005347
-0.004899
-0.004909
-0.004886
-0.004723
-0.004815
-0.004954
-0.004631
-0.004398
-0.004899
-0.005410
-0.005093
-0.004810
-0.004865
-0.004613
-0.004395
-0.004762
-0.005216
-0.004983
-0.004516
-0.004647
-0.004707
-0.004235
-0.004112
-0.004437
-0.004193
-0.003875
-0.004266
-0.004450
-0.004222
-0.004114
-0.004308
-0.004358
-0.004542
-0.005075
-0.005500
-0.005332
-0.005048
-0.004823
-0.004369
-0.004122
-0.004311
-0.004434
-0.004337
-0.004558
-0.005119
-0.005476
-0.005581
-0.005195
-0.004652
-0.004274
-0.004140
-0.003778
-0.003589
-0.003841
-0.004077
-0.003794
-0.003566
-0.003959
-0.004001
-0.003603
-0.003492
-0.003553
-0.003408
-0.003233
-0.003280
-0.003647
-0.003873
-0.003875
-0.003645
-0.003204
-0.002784
-0.002794
-0.003028
-0.003177
-0.003351
-0.003542
-0.003700
-0.003558
-0.003540
-0.003857
-0.004083
-0.003815
-0.003545
-0.003348
-0.003243
-0.003416
-0.003684
-0.003558
-0.003170
-0.003440
-0.003957
-0.003752
-0.003275
-0.003306
-0.003550
-0.003282
-0.003010
-0.003272
-0.003576
-0.003789
-0.004119
-0.004193
-0.003749
-0.003345
-0.003566
-0.003749
-0.003332
-0.002794
-0.002773
-0.002716
-0.002522
-0.002603
-0.002794
-0.002724
-0.002661
-0.003104
-0.003605
-0.003812
-0.003763
-0.003763
-0.003681
-0.003317
-0.002897
-0.002939
-0.003073
-0.002629
-0.002186
-0.002251
-0.002369
-0.002354
-0.002637
-0.002939
-0.002957
-0.002826
-0.002960
-0.003466
-0.003637
-0.003463
-0.003369
-0.003183
-0.002999
-0.003015
-0.003057
-0.003015
-0.002975
-0.003083
-0.003044
-0.002653
-0.002760
-0.003443
-0.003474
-0.003075
-0.003238
-0.003529
-0.003246
-0.003122
-0.003395
-0.003172
-0.002385
-0.002005
-0.002309
-0.002375
-0.002157
-0.002487
-0.003222
-0.003521
-0.003429
-0.003275
-0.003044
-0.002923
-0.003065
-0.003204
-0.002952
-0.002679
-0.002682
-0.002755
-0.002821
-0.002996
-0.003031
-0.002836
-0.002792
-0.002910
-0.002936
-0.003044
-0.003275
-0.003309
-0.003240
-0.003219
-0.003319
-0.003532
-0.003519
-0.003201
-0.002768
-0.002532
-0.002647
-0.002936
-0.002889
-0.002794
-0.002947
-0.002878
-0.002624
-0.002417
-0.002280
-0.002264
-0.002487
-0.002975
-0.003550
-0.003448
-0.003025
-0.003010
-0.003188
-0.003138
-0.002868
-0.002671
-0.002606
-0.002506
-0.002346
-0.002469
-0.002611
-0.002490
-0.002301
-0.002212
-0.002015
-0.001808
-0.001950
-0.002356
-0.002632
-0.002682
-0.002750
-0.002564
-0.002291
-0.002335
-0.002435
-0.002535
-0.002703
-0.003078
-0.003214
-0.002773
-0.002448
-0.002663
-0.002781
-0.002474
-0.002236
-0.002338
-0.002632
-0.002634
-0.002409
-0.002215
-0.002309
-0.002459
-0.002453
-0.002283
-0.002173
-0.002083
-0.001981
-0.002070
-0.002094
-0.001947
-0.001992
-0.002283
-0.002445
-0.002322
-0.002291
-0.002382
-0.002201
-0.001934
-0.001992
-0.002131
-0.002076
-0.002194
-0.002456
-0.002487
-0.002325
-0.002243
-0.002306
-0.002264
-0.002183
-0.002117
-0.002128
-0.002296
-0.002650
-0.002842
-0.002490
-0.002076
-0.002013
-0.002076
-0.002099
-0.002023
-0.002209
-0.002703
-0.003049
-0.002779
-0.002461
-0.002527
-0.002498
-0.002243
-0.001926
-0.001716
-0.001569
-0.001522
-0.001590
-0.001771
-0.001821
-0.001795
-0.001894
-0.002041
-0.001999
-0.001860
-0.001984
-0.002123
-0.002091
-0.001923
-0.001918
-0.001876
-0.001716
-0.001650
-0.001506
-0.001315
-0.001535
-0.001994
-0.002141
-0.001986
-0.001855
-0.001758
-0.001580
-0.001553
-0.001923
-0.002110
-0.002125
-0.002348
-0.002503
-0.002377
-0.002133
-0.002225
-0.002377
-0.002380
-0.002338
-0.002309
-0.002186
-0.002089
-0.002086
-0.002002
-0.001813
-0.001750
-0.001845
-0.001992
-0.002131
-0.002283
-0.002220
-0.002047
-0.002010
-0.002099
-0.002270
-0.002322
-0.002167
-0.002062
-0.002036
-0.001716
-0.001477
-0.001585
-0.001606
-0.001448
-0.001433
-0.001692
-0.001876
-0.001905
-0.001929
-0.001931
-0.002047
-0.002117
-0.001992
-0.001692
-0.001614
-0.001897
-0.001960
-0.001724
-0.001496
-0.001446
-0.001309
-0.001370
-0.001501
-0.001459
-0.001320
-0.001372
-0.001525
-0.001603
-0.001706
-0.001782
-0.001824
-0.001816
-0.001548
-0.001330
-0.001414
-0.001748
-0.001750
-0.001619
-0.001858
-0.002039
-0.001784
-0.001648
-0.001992
-0.002128
-0.002078
-0.002044
-0.001952
-0.001750
-0.001648
-0.001700
-0.001614
-0.001561
-0.001629
-0.001692
-0.001462
-0.001593
-0.001934
-0.001831
-0.001677
-0.001708
-0.001564
-0.001126
-0.001026
-0.001412
-0.001627
-0.001467
-0.001312
-0.001296
-0.001380
-0.001624
-0.001821
-0.001742
-0.001685
-0.001803
-0.001774
-0.001577
-0.001477
-0.001472
-0.001577
-0.001761
-0.001792
-0.001721
-0.001664
-0.001522
-0.001496
-0.001784
-0.002123
-0.002070
-0.001871
-0.001860
-0.001855
-0.001719
-0.001451
-0.001417
-0.001425
-0.001385
-0.001367
-0.001467
-0.001435
-0.001147
-0.000942
-0.001165
-0.001304
-0.001105
-0.001050
-0.001299
-0.001501
-0.001367
-0.001383
-0.001774
-0.002002
-0.001881
-0.001776
-0.001868
-0.001671
-0.001336
-0.001322
-0.001514
-0.001370
-0.001249
-0.001711
-0.002026
-0.001671
-0.001330
-0.001556
-0.001708
-0.001456
-0.001412
-0.001653
-0.001708
-0.001556
-0.001532
-0.001527
-0.001483
-0.001624
-0.001698
-0.001477
-0.001304
-0.001425
-0.001448
-0.001480
-0.001774
-0.001837
-0.001593
-0.001548
-0.001719
-0.001577
-0.001252
-0.001265
-0.001477
-0.001446
-0.001294
-0.001349
-0.001351
-0.001330
-0.001338
-0.001218
-0.001134
-0.001141
-0.001275
-0.001252
-0.001241
-0.001406
-0.001430
-0.001207
-0.000992
-0.001000
-0.001047
-0.001131
-0.001199
-0.001265
-0.001275
-0.001291
-0.001556
-0.001831
-0.001766
-0.001548
-0.001359
-0.001333
-0.001278
-0.001191
-0.001262
-0.001420
-0.001480
-0.001396
-0.001451
-0.001643
-0.001629
-0.001433
-0.001357
-0.001582
-0.001593
-0.001283
-0.001189
-0.001241
-0.001202
-0.001383
-0.001522
-0.001406
-0.001548
-0.001845
-0.001860
-0.001517
-0.001427
-0.001790
-0.001813
-0.001357
-0.001149
-0.001118
-0.001139
-0.001299
-0.001406
-0.001388
-0.001304
-0.001441
-0.001519
-0.001393
-0.001322
-0.001480
-0.001490
-0.001291
-0.001147
-0.000908
-0.000680
-0.000690
-0.000855
-0.000976
-0.001128
-0.001349
-0.001501
-0.001349
-0.001068
-0.001178
-0.001378
-0.001294
-0.001191
-0.001260
-0.001438
-0.001619
-0.001669
-0.001574
-0.001362
-0.001071
-0.000861
-0.001063
-0.001425
-0.001467
-0.001110
-0.001018
-0.001186
-0.001270
-0.001278
-0.001483
-0.001635
-0.001601
-0.001496
-0.001433
-0.001328
-0.001094
-0.000900
-0.000916
-0.000953
-0.000858
-0.000695
-0.000753
-0.001029
-0.001118
-0.001094
-0.001165
-0.001320
-0.001357
-0.001257
-0.001262
-0.001262
-0.001113
-0.000947
-0.000879
-0.000845
-0.000974
-0.001191
-0.001170
-0.000987
-0.001015
-0.001073
-0.000890
-0.000890
-0.001071
-0.001092
-0.001107
-0.001354
-0.001464
-0.001189
-0.000924
-0.000916
-0.000884
-0.000756
-0.000646
-0.000709
-0.000703
-0.000724
-0.000918
-0.000958
-0.000926
-0.001002
-0.001099
-0.001107
-0.001050
-0.000921
-0.000858
-0.000803
-0.000782
-0.000848
-0.000855
-0.001094
-0.001249
-0.001199
-0.001102
-0.001000
-0.000950
-0.000992
-0.001220
-0.001296
-0.001160
-0.001099
-0.001304
-0.001509
-0.001354
-0.001013
-0.000735
-0.000690
-0.000774
-0.000837
-0.000997
-0.001173
-0.001320
-0.001322
-0.001199
-0.001123
-0.001015
-0.000905
-0.000766
-0.000743
-0.000842
-0.001228
-0.001388
-0.001060
-0.000811
-0.001005
-0.001286
-0.001204
-0.001239
-0.001388
-0.001220
-0.000897
-0.000779
-0.000785
-0.000567
-0.000331
-0.000525
-0.000785
-0.000709
-0.000764
-0.001002
-0.001118
-0.001105
-0.001280
-0.001393
-0.001081
-0.000842
-0.000976
-0.001105
-0.001031
-0.001194
-0.001312
-0.001128
-0.000916
-0.000987
-0.001078
-0.000905
-0.000874
-0.001178
-0.001320
-0.001165
-0.001178
-0.001446
-0.001385
-0.001094
-0.001021
-0.000963
-0.000790
-0.000811
-0.001131
-0.001186
-0.000834
-0.000890
-0.001307
-0.001296
-0.000987
-0.000994
-0.001092
-0.000987
-0.000905
-0.000913
-0.000845
-0.000934
-0.001220
-0.001299
-0.000976
-0.000732
-0.000824
-0.000795
-0.000677
-0.000790
-0.000955
-0.000929
-0.000861
-0.000974
-0.000863
-0.000729
-0.001023
-0.001349
-0.001065
-0.000716
-0.000926
-0.001181
-0.000987
-0.000722
-0.000921
-0.001115
-0.001044
-0.001089
-0.001383
-0.001278
-0.001015
-0.001081
-0.001223
-0.001008
-0.000727
-0.000934
-0.001173
-0.001034
-0.000876
-0.001092
-0.001223
-0.001097
-0.001005
-0.000963
-0.000840
-0.000682
-0.000737
-0.000709
-0.000496
-0.000409
-0.000701
-0.000934
-0.000853
-0.000840
-0.000761
-0.000577
-0.000493
-0.000569
-0.000630
-0.000619
-0.000530
-0.000690
-0.000853
-0.000690
-0.000609
-0.000771
-0.000714
-0.000535
-0.000638
-0.000869
-0.000840
-0.000716
-0.000900
-0.001141
-0.000921
-0.000614
-0.000706
-0.000953
-0.000897
-0.000848
-0.000960
-0.001149
-0.001050
-0.000753
-0.000769
-0.000911
-0.000924
-0.000882
-0.000913
-0.000895
-0.000840
-0.000819
-0.000811
-0.000695
-0.000590
-0.000735
-0.000816
-0.000690
-0.000546
-0.000538
-0.000514
-0.000543
-0.000745
-0.000897
-0.000827
-0.000850
-0.000869
-0.000766
-0.000656
-0.000695
-0.000743
-0.000643
-0.000525
-0.000648
-0.000816
-0.000895
-0.000884
-0.000732
-0.000548
-0.000491
-0.000483
-0.000493
-0.000514
-0.000512
-0.000656
-0.000756
-0.000855
-0.001005
-0.001034
-0.000848
-0.000651
-0.000548
-0.000622
-0.000753
-0.000790
-0.000790
-0.000892
-0.000908
-0.000918
-0.000900
-0.000827
-0.000758
-0.000743
-0.000958
-0.001233
-0.001312
-0.001168
-0.000918
-0.000800
-0.000682
-0.000493
-0.000370
-0.000354
-0.000441
-0.000446
-0.000449
-0.000567
-0.000583
-0.000551
-0.000737
-0.000853
-0.000719
-0.000462
-0.000443
-0.000520
-0.000412
-0.000409
-0.000551
-0.000533
-0.000464
-0.000538
-0.000443
-0.000249
-0.000299
-0.000462
-0.000480
-0.000472
-0.000656
-0.000740
-0.000672
-0.000698
-0.000845
-0.000743
-0.000562
-0.000674
-0.000792
-0.000648
-0.000522
-0.000449
-0.000381
-0.000378
-0.000428
-0.000525
-0.000590
-0.000569
-0.000583
-0.000496
-0.000493
-0.000464
-0.000417
-0.000454
-0.000451
-0.000325
-0.000360
-0.000617
-0.000653
-0.000575
-0.000588
-0.000556
-0.000706
-0.000987
-0.000937
-0.000638
-0.000496
-0.000467
-0.000394
-0.000543
-0.000732
-0.000711
-0.000499
-0.000394
-0.000339
-0.000171
-0.000226
-0.000478
-0.000604
-0.000604
-0.000853
-0.001191
-0.001194
-0.000879
-0.000661
-0.000656
-0.000506
-0.000339
-0.000674
-0.001094
-0.001042
-0.000693
-0.000512
-0.000457
-0.000207
-0.000105
-0.000404
-0.000632
-0.000522
-0.000514
-0.000750
-0.000824
-0.000651
-0.000714
-0.000981
-0.000842
-0.000522
-0.000577
-0.000677
-0.000577
-0.000669
-0.000785
-0.000745
-0.000614
-0.000590
-0.000598
-0.000512
-0.000391
-0.000409
-0.000533
-0.000548
-0.000527
-0.000611
-0.000672
-0.000737
-0.000882
-0.000879
-0.000669
-0.000425
-0.000381
-0.000423
-0.000430
-0.000415
-0.000572
-0.000711
-0.000643
-0.000352
-0.000210
-0.000341
-0.000538
-0.000606
-0.000585
-0.000625
-0.000593
-0.000572
-0.000622
-0.000491
-0.000370
-0.000278
-0.000333
-0.000496
-0.000499
-0.000517
-0.000533
-0.000546
-0.000470
-0.000567
-0.000813
-0.000806
-0.000577
-0.000433
-0.000443
-0.000457
-0.000541
-0.000627
-0.000729
-0.000706
-0.000622
-0.000656
-0.000711
-0.000648
-0.000493
-0.000417
-0.000336
-0.000158
-0.000066
-0.000281
-0.000457
-0.000412
-0.000302
-0.000318
-0.000375
-0.000333
-0.000362
-0.000433
-0.000454
-0.000554
-0.000800
-0.000756
-0.000569
-0.000472
-0.000533
-0.000562
-0.000627
-0.000475
-0.000297
-0.000336
-0.000504
-0.000509
-0.000391
-0.000554
-0.000667
-0.000378
-0.000126
-0.000158
-0.000341
-0.000412
-0.000404
-0.000504
-0.000425
-0.000438
-0.000580
-0.000753
-0.000648
-0.000451
-0.000619
-0.000876
-0.000698
-0.000438
-0.000493
-0.000564
-0.000268
-0.000081
-0.000312
-0.000457
-0.000415
-0.000454
-0.000533
-0.000428
-0.000388
-0.000567
-0.000848
-0.000740
-0.000383
-0.000304
-0.000312
-0.000283
-0.000312
-0.000265
-0.000139
-0.000108
-0.000291
-0.000496
-0.000512
-0.000551
-0.000735
-0.000727
-0.000659
-0.000688
-0.000651
-0.000535
-0.000693
-0.000853
-0.000735
-0.000464
-0.000420
-0.000462
-0.000349
-0.000205
-0.000299
-0.000520
-0.000527
-0.000488
-0.000546
-0.000509
-0.000399
-0.000480
-0.000816
-0.000926
-0.000827
-0.000748
-0.000758
-0.000627
-0.000478
-0.000339
-0.000312
-0.000310
-0.000302
-0.000325
-0.000273
-0.000168
-0.000291
-0.000525
-0.000499
-0.000341
-0.000378
-0.000548
-0.000504
-0.000207
-0.000202
-0.000257
-0.000192
-0.000252
-0.000423
-0.000260
-0.000024
-0.000045
-0.000137
-0.000186
-0.000165
-0.000165
-0.000168
-0.000205
-0.000205
-0.000134
-0.000234
-0.000415
-0.000467
-0.000509
-0.000604
-0.000648
-0.000745
-0.000840
-0.000790
-0.000525
-0.000265
-0.000283
-0.000438
-0.000517
-0.000546
-0.000478
-0.000404
-0.000409
-0.000391
-0.000446
-0.000580
-0.000643
-0.000478
-0.000315
-0.000344
-0.000459
-0.000423
-0.000328
-0.000318
-0.000228
-0.000071
-0.000142
-0.000252
-0.000184
0.000026
-0.000008
-0.000142
-0.000210
-0.000478
-0.000792
-0.000887
-0.000771
-0.000672
-0.000569
-0.000417
-0.000417
-0.000464
-0.000383
-0.000425
-0.000538
-0.000412
-0.000241
-0.000155
-0.000189
-0.000241
-0.000375
-0.000512
-0.000527
-0.000449
-0.000341
-0.000331
-0.000247
-0.000207
-0.000257
-0.000367
-0.000596
-0.000714
-0.000740
-0.000706
-0.000722
-0.000569
-0.000336
-0.000236
-0.000273
-0.000349
-0.000220
-0.000144
-0.000178
-0.000137
-0.000110
-0.000152
-0.000286
-0.000283
-0.000252
-0.000302
-0.000244
-0.000147
-0.000123
-0.000213
-0.000039
0.000102
-0.000042
-0.000126
-0.000089
-0.000239
-0.000480
-0.000454
-0.000346
-0.000457
-0.000748
-0.000722
-0.000504
-0.000509
-0.000640
-0.000506
-0.000493
-0.000693
-0.000769
-0.000478
-0.000234
-0.000344
-0.000436
-0.000341
-0.000346
-0.000404
-0.000273
-0.000081
-0.000192
-0.000299
-0.000184
0.000018
0.000010
-0.000194
-0.000268
-0.000110
0.000003
-0.000034
-0.000105
-0.000205
-0.000423
-0.000478
-0.000436
-0.000312
-0.000199
-0.000257
-0.000420
-0.000457
-0.000496
-0.000480
-0.000375
-0.000375
-0.000457
-0.000520
-0.000409
-0.000333
-0.000362
-0.000388
-0.000451
-0.000669
-0.000766
-0.000632
-0.000569
-0.000478
-0.000402
-0.000289
-0.000176
-0.000076
-0.000024
-0.000228
-0.000485
-0.000530
-0.000323
-0.000223
-0.000252
-0.000315
-0.000415
-0.000446
-0.000451
-0.000404
-0.000273
-0.000197
-0.000081
-0.000042
-0.000084
-0.000147
-0.000260
-0.000323
-0.000294
-0.000270
-0.000381
-0.000430
-0.000428
-0.000375
-0.000307
-0.000336
-0.000344
-0.000328
-0.000299
-0.000304
-0.000409
-0.000501
-0.000640
-0.000748
-0.000703
-0.000648
-0.000517
-0.000197
-0.000021
-0.000181
-0.000312
-0.000226
-0.000013
0.000018
-0.000123
-0.000144
-0.000215
-0.000244
-0.000173
-0.000160
-0.000402
-0.000457
-0.000236
-0.000092
-0.000178
-0.000186
-0.000053
0.000031
0.000050
0.000031
-0.000055
-0.000289
-0.000375
-0.000260
-0.000158
-0.000255
-0.000310
-0.000349
-0.000480
-0.000520
-0.000619
-0.000667
-0.000646
-0.000590
-0.000443
-0.000173
-0.000084
-0.000129
-0.000110
-0.000037
-0.000144
-0.000286
-0.000249
-0.000291
-0.000360
-0.000346
-0.000194
-0.000176
-0.000260
-0.000262
-0.000194
-0.000234
-0.000226
-0.000165
-0.000223
-0.000370
-0.000270
-0.000053
0.000042
-0.000000
0.000045
0.000071
-0.000121
-0.000278
-0.000283
-0.000320
-0.000346
-0.000291
-0.000228
-0.000116
-0.000003
0.000071
0.000076
-0.000155
-0.000310
-0.000126
-0.000039
-0.000139
-0.000223
-0.000192
-0.000168
-0.000184
-0.000053
0.000026
-0.000105
-0.000333
-0.000370
-0.000362
-0.000286
-0.000357
-0.000527
-0.000588
-0.000593
-0.000604
-0.000611
-0.000496
-0.000310
-0.000194
-0.000071
0.000142
0.000241
0.000073
-0.000108
-0.000123
-0.000126
-0.000163
-0.000024
0.000089
-0.000000
-0.000165
-0.000192
-0.000144
-0.000257
-0.000215
-0.000089
-0.000202
-0.000310
-0.000097
0.000026
-0.000079
-0.000113
-0.000142
-0.000220
-0.000354
-0.000346
-0.000388
-0.000506
-0.000454
-0.000344
-0.000344
-0.000283
-0.000089
0.000087
0.000042
-0.000074
-0.000147
-0.000223
-0.000213
-0.000121
-0.000197
-0.000270
-0.000126
0.000152
0.000197
0.000045
-0.000192
-0.000480
-0.000632
-0.000596
-0.000530
-0.000567
-0.000470
-0.000286
-0.000147
0.000037
0.000176
0.000149
0.000052
-0.000110
-0.000276
-0.000328
-0.000289
-0.000192
-0.000142
-0.000131
-0.000160
-0.000213
-0.000213
-0.000171
-0.000168
-0.000139
-0.000113
-0.000081
-0.000084
-0.000108
-0.000144
-0.000262
-0.000346
-0.000428
-0.000493
-0.000501
-0.000417
-0.000325
-0.000467
-0.000567
-0.000428
-0.000039
0.000076
-0.000150
-0.000210
-0.000066
-0.000016
-0.000100
-0.000218
-0.000320
-0.000388
-0.000270
-0.000160
-0.000189
-0.000318
-0.000281
-0.000173
-0.000131
-0.000032
0.000010
-0.000095
-0.000197
-0.000134
-0.000113
-0.000247
-0.000283
-0.000126
-0.000118
-0.000228
-0.000236
-0.000176
-0.000270
-0.000446
-0.000501
-0.000341
-0.000404
-0.000656
-0.000798
-0.000711
-0.000583
-0.000430
-0.000273
-0.000176
-0.000220
-0.000255
-0.000042
0.000092
-0.000178
-0.000441
-0.000354
-0.000218
-0.000165
-0.000087
0.000005
-0.000024
-0.000105
-0.000147
-0.000234
-0.000241
-0.000060
0.000024
-0.000116
-0.000244
-0.000144
-0.000197
-0.000386
-0.000336
-0.000171
-0.000291
-0.000378
-0.000129
0.000115
0.000003
0.000013
0.000149
0.000134
0.000005
-0.000045
-0.000068
-0.000184
-0.000223
-0.000095
-0.000047
-0.000053
0.000087
0.000220
0.000160
0.000073
0.000073
0.000047
-0.000105
-0.000299
-0.000367
-0.000278
-0.000234
-0.000089
0.000121
0.000031
-0.000181
-0.000123
0.000107
0.000128
-0.000032
-0.000008
0.000186
0.000210
0.000087
0.000066
0.000037
-0.000129
-0.000244
-0.000383
-0.000493
-0.000483
-0.000276
-0.000071
-0.000134
-0.000220
-0.000139
-0.000055
-0.000037
-0.000063
-0.000018
-0.000050
-0.000184
-0.000186
-0.000155
-0.000289
-0.000352
-0.000165
-0.000102
-0.000131
-0.000005
0.000165
0.000126
-0.000053
-0.000029
0.000037
-0.000032
-0.000060
-0.000021
-0.000018
-0.000042
0.000052
0.000021
-0.000000
0.000094
0.000089
-0.000137
-0.000333
-0.000289
-0.000215
-0.000202
-0.000097
0.000060
0.000021
-0.000168
-0.000239
-0.000134
-0.000037
-0.000105
-0.000213
-0.000108
0.000076
0.000147
0.000131
0.000160
0.000105
-0.000079
-0.000039
-0.000037
-0.000260
-0.000396
-0.000289
-0.000089
-0.000100
-0.000262
-0.000257
-0.000228
-0.000210
-0.000087
0.000016
-0.000029
0.000013
0.000100
0.000039
-0.000011
0.000047
-0.000005
-0.000249
-0.000388
-0.000249
-0.000199
-0.000255
-0.000205
-0.000084
-0.000160
-0.000236
-0.000016
0.000131
0.000029
-0.000045
0.000055
0.000136
0.000024
0.000081
0.000160
0.000087
0.000094
0.000202
0.000210
0.000039
0.000092
0.000163
0.000073
0.000092
0.000105
0.000024
-0.000139
-0.000294
-0.000362
-0.000370
-0.000147
-0.000032
-0.000024
0.000052
0.000128
0.000087
0.000045
0.000089
0.000042
-0.000000
0.000102
0.000186
-0.000018
-0.000381
-0.000402
-0.000283
-0.000249
-0.000178
-0.000186
-0.000213
-0.000084
0.000060
-0.000079
-0.000223
-0.000129
0.000005
-0.000113
-0.000194
-0.000126
-0.000150
-0.000220
-0.000147
-0.000081
-0.000176
-0.000178
0.000026
0.000113
-0.000118
-0.000199
-0.000121
-0.000270
-0.000283
0.000052
0.000260
0.000189
0.000115
0.000042
-0.000223
-0.000575
-0.000530
-0.000210
-0.000197
-0.000310
-0.000215
0.000016
0.000005
-0.000155
-0.000255
-0.000294
-0.000315
-0.000186
0.000055
-0.000000
-0.000276
-0.000234
0.000076
0.000050
-0.000165
-0.000262
-0.000147
-0.000034
-0.000047
-0.000105
-0.000165
-0.000318
-0.000307
-0.000150
-0.000053
0.000024
0.000107
0.000076
-0.000205
-0.000457
-0.000318
-0.000016
0.000013
-0.000063
-0.000139
-0.000270
-0.000304
-0.000231
-0.000139
-0.000042
0.000100
0.000233
0.000307
0.000331
0.000212
0.000118
0.000134
0.000102
-0.000003
-0.000060
-0.000018
0.000155
0.000257
0.000283
0.000331
0.000252
0.000003
-0.000105
-0.000116
-0.000171
-0.000291
-0.000278
-0.000168
-0.000210
-0.000176
0.000094
0.000231
0.000107
0.000005
-0.000011
-0.000039
-0.000142
-0.000116
0.000037
0.000071
0.000050
0.000013
-0.000163
-0.000462
-0.000433
-0.000307
-0.000320
-0.000262
-0.000042
0.000055
-0.000060
-0.000011
0.000128
0.000079
-0.000039
-0.000013
0.000034
-0.000013
0.000010
0.000073
0.000066
-0.000011
0.000005
0.000050
0.000042
-0.000005
0.000073
0.000176
0.000231
0.000294
0.000404
0.000414
0.000346
0.000254
0.000092
-0.000060
-0.000323
-0.000609
-0.000648
-0.000501
-0.000367
-0.000194
0.000026
0.000034
-0.000113
-0.000081
0.000092
0.000073
-0.000068
-0.000034
0.000034
-0.000021
-0.000102
-0.000003
0.000052
-0.000034
-0.000029
0.000087
0.000118
0.000107
0.000194
0.000262
0.000118
0.000050
0.000149
0.000197
0.000094
0.000068
0.000055
-0.000011
0.000008
-0.000005
-0.000084
-0.000100
-0.000058
0.000008
0.000055
0.000134
0.000073
0.000029
0.000060
0.000131
0.000058
0.000050
0.000102
0.000097
0.000068
0.000063
0.000052
0.000073
0.000126
0.000105
0.000155
0.000186
0.000173
0.000184
0.000094
0.000087
0.000066
0.000107
0.000107
0.000089
0.000115
0.000144
0.000089
0.000042
0.000076
0.000092
0.000029
0.000052
0.000241
0.000331
0.000226
0.000071
-0.000005
-0.000239
-0.000428
-0.000328
-0.000276
-0.000286
-0.000100
0.000139
0.000226
0.000257
0.000296
0.000144
0.000060
0.000113
0.000142
0.000003
-0.000087
-0.000063
-0.000118
-0.000173
-0.000087
-0.000063
-0.000092
0.000013
0.000131
0.000189
0.000236
0.000386
0.000373
0.000199
0.000047
-0.000071
-0.000095
0.000024
0.000155
0.000152
0.000084
0.000202
0.000312
0.000331
0.000310
0.000205
0.000005
-0.000199
-0.000215
-0.000000
0.000231
0.000236
0.000139
0.000073
0.000010
0.000050
0.000163
0.000170
0.000144
0.000118
0.000168
0.000220
0.000189
0.000039
-0.000074
0.000037
0.000052
-0.000042
0.000003
0.000207
0.000273
0.000231
0.000362
0.000388
0.000184
0.000087
0.000231
0.000254
0.000087
0.000105
0.000210
0.000126
0.000047
0.000123
0.000107
-0.000037
-0.000042
0.000131
0.000207
0.000160
0.000094
0.000126
0.000160
0.000170
0.000136
0.000107
0.000047
0.000008
-0.000013
0.000102
0.000202
0.000218
0.000304
0.000396
0.000359
0.000294
0.000349
0.000317
0.000157
0.000016
0.000110
0.000134
0.000034
0.000039
0.000176
0.000168
0.000071
0.000126
0.000223
0.000210
0.000128
0.000126
0.000233
0.000310
0.000341
0.000323
0.000257
0.000223
0.000262
0.000323
0.000265
0.000136
-0.000011
-0.000050
-0.000089
-0.000016
0.000042
0.000008
-0.000016
0.000055
0.000079
0.000100
0.000144
0.000226
0.000173
0.000013
0.000047
0.000097
0.000063
0.000121
0.000199
0.000278
0.000249
0.000136
-0.000024
-0.000097
-0.000060
0.000039
0.000084
0.000134
0.000081
0.000094
0.000181
0.000278
0.000273
0.000168
0.000147
0.000142
0.000115
0.000005
-0.000158
-0.000344
-0.000336
-0.000147
-0.000032
0.000005
0.000045
-0.000029
-0.000116
-0.000026
0.000144
0.000160
0.000202
0.000317
0.000296
0.000244
0.000215
0.000233
0.000079
-0.000076
-0.000105
-0.000024
-0.000050
-0.000108
-0.000105
-0.000131
-0.000045
0.000215
0.000404
0.000401
0.000388
0.000325
0.000239
0.000241
0.000270
0.000270
0.000176
0.000102
0.000113
0.000136
0.000152
0.000005
-0.000160
-0.000129
0.000013
0.000024
-0.000039
0.000055
0.000149
0.000152
0.000107
0.000100
0.000173
0.000228
0.000121
0.000097
0.000037
-0.000126
-0.000045
0.000144
0.000191
0.000121
0.000134
0.000189
0.000207
0.000181
0.000247
0.000223
0.000170
0.000273
0.000417
0.000365
0.000186
0.000107
0.000071
-0.000084
-0.000097
0.000191
0.000302
0.000194
0.000160
0.000100
0.000052
-0.000016
0.000121
0.000178
0.000128
0.000239
0.000370
0.000412
0.000333
0.000236
0.000165
0.000136
0.000178
0.000165
0.000029
-0.000042
-0.000005
0.000018
-0.000016
0.000100
0.000218
0.000247
0.000194
0.000178
0.000163
0.000126
0.000173
0.000144
-0.000032
-0.000163
-0.000045
0.000102
0.000131
0.000136
0.000275
0.000294
0.000215
0.000252
0.000349
0.000414
0.000378
0.000247
0.000102
-0.000045
-0.000076
-0.000032
0.000105
0.000184
0.000226
0.000262
0.000275
0.000281
0.000191
0.000081
0.000005
-0.000029
0.000021
0.000076
0.000186
0.000202
0.000254
0.000286
0.000191
0.000066
0.000118
0.000270
0.000278
0.000289
0.000443
0.000525
0.000399
0.000268
0.000115
-0.000074
-0.000297
-0.000220
-0.000092
-0.000063
-0.000050
-0.000045
0.000081
0.000147
0.000139
0.000107
0.000034
0.000089
0.000231
0.000186
-0.000079
-0.000116
0.000102
0.000152
0.000136
0.000205
0.000338
0.000331
0.000273
0.000346
0.000294
0.000123
0.000100
0.000197
0.000233
0.000045
-0.000097
-0.000060
0.000045
0.000076
0.000100
0.000189
0.000173
0.000084
0.000058
0.000066
0.000031
-0.000000
0.000102
0.000191
0.000176
0.000236
0.000249
0.000202
0.000131
0.000068
0.000113
0.000194
0.000239
0.000336
0.000386
0.000407
0.000249
-0.000005
-0.000042
0.000089
0.000063
0.000031
0.000110
0.000241
0.000304
0.000320
0.000401
0.000425
0.000409
0.000456
0.000506
0.000438
0.000302
0.000270
0.000254
0.000291
0.000359
0.000349
0.000333
0.000357
0.000362
0.000414
0.000378
0.000328
0.000278
0.000275
0.000142
0.000189
0.000268
0.000336
0.000281
0.000275
0.000338
0.000289
-0.000042
-0.000247
-0.000207
-0.000152
-0.000089
0.000107
0.000296
0.000331
0.000315
0.000362
0.000312
0.000128
0.000055
0.000102
0.000052
0.000021
0.000058
0.000029
0.000026
0.000121
0.000092
0.000050
0.000107
0.000170
0.000105
0.000128
0.000265
0.000257
0.000079
-0.000024
0.000079
0.000207
0.000260
0.000336
0.000407
0.000320
0.000254
0.000252
0.000173
0.000042
-0.000032
-0.000011
0.000018
0.000105
0.000181
0.000197
0.000136
0.000084
0.000176
0.000241
0.000215
0.000231
0.000268
0.000212
0.000115
0.000142
0.000205
0.000134
-0.000063
-0.000147
-0.000008
0.000118
0.000102
0.000231
0.000181
0.000005
-0.000018
0.000115
0.000223
0.000110
0.000094
0.000207
0.000199
0.000157
0.000199
0.000273
0.000107
-0.000079
-0.000081
-0.000066
-0.000053
0.000013
0.000110
0.000176
0.000165
0.000163
0.000197
0.000275
0.000289
0.000304
0.000265
0.000233
0.000060
-0.000068
-0.000045
-0.000026
-0.000047
0.000087
0.000239
0.000294
0.000178
0.000113
0.000207
0.000291
0.000236
0.000178
0.000189
0.000186
0.000142
0.000228
0.000291
0.000202
0.000052
-0.000016
0.000021
0.000157
0.000210
0.000207
0.000139
0.000115
0.000270
0.000344
0.000215
0.000073
0.000097
0.000139
0.000084
0.000102
0.000210
0.000281
0.000396
0.000404
0.000296
0.000076
0.000024
0.000205
0.000336
0.000404
0.000493
0.000488
0.000346
0.000210
0.000210
0.000160
0.000136
0.000275
0.000370
0.000296
0.000218
0.000215
0.000170
0.000073
-0.000000
-0.000011
-0.000026
-0.000126
-0.000097
-0.000039
0.000089
0.000233
0.000325
0.000352
0.000354
0.000417
0.000404
0.000338
0.000249
0.000168
0.000149
0.000149
0.000231
0.000220
0.000215
0.000265
0.000354
0.000312
0.000273
0.000375
0.000299
0.000239
0.000249
0.000304
0.000393
0.000443
0.000441
0.000399
0.000294
0.000186
0.000136
0.000058
0.000045
0.000024
0.000092
0.000191
0.000278
0.000286
0.000241
0.000168
0.000126
0.000155
0.000239
0.000352
0.000438
0.000333
0.000273
0.000357
0.000367
0.000286
0.000094
0.000045
0.000123
0.000131
0.000066
0.000147
0.000320
0.000391
0.000396
0.000388
0.000388
0.000375
0.000331
0.000370
0.000425
0.000430
0.000331
0.000226
0.000202
0.000281
0.000341
0.000223
0.000168
0.000176
0.000081
0.000005
0.000149
0.000268
0.000223
0.000181
0.000215
0.000252
0.000286
0.000278
0.000333
0.000352
0.000456
0.000517
0.000527
0.000391
0.000254
0.000241
0.000320
0.000409
0.000302
0.000268
0.000294
0.000320
0.000254
0.000244
0.000378
0.000383
0.000391
0.000485
0.000567
0.000512
0.000378
0.000312
0.000310
0.000346
0.000349
0.000399
0.000422
0.000354
0.000233
0.000173
0.000199
0.000207
0.000142
0.000218
0.000283
0.000170
0.000215
0.000407
0.000464
0.000320
0.000184
0.000194
0.000231
0.000220
0.000194
0.000205
0.000170
0.000118
0.000265
0.000344
0.000317
0.000378
0.000470
0.000441
0.000325
0.000373
0.000462
0.000357
0.000134
0.000134
0.000212
0.000249
0.000323
0.000283
0.000178
0.000181
0.000210
0.000336
0.000391
0.000346
0.000215
0.000168
0.000254
0.000341
0.000344
0.000296
0.000278
0.000338
0.000370
0.000425
0.000399
0.000315
0.000333
0.000367
0.000354
0.000304
0.000278
0.000241
0.000202
0.000239
0.000191
0.000073
0.000031
0.000110
0.000247
0.000331
0.000441
0.000519
0.000491
0.000289
0.000163
0.000097
0.000092
0.000063
0.000045
0.000126
0.000231
0.000310
0.000386
0.000344
0.000346
0.000307
0.000283
0.000281
0.000228
0.000115
0.000139
0.000220
0.000268
0.000278
0.000212
0.000249
0.000346
0.000328
0.000336
0.000302
0.000128
0.000076
0.000202
0.000249
0.000123
0.000079
0.000144
0.000136
0.000189
0.000341
0.000438
0.000407
0.000425
0.000359
0.000107
-0.000060
-0.000037
0.000071
0.000163
0.000231
0.000257
0.000268
0.000268
0.000205
0.000199
0.000260
0.000275
0.000312
0.000370
0.000391
0.000296
0.000304
0.000412
0.000446
0.000341
0.000304
0.000391
0.000370
0.000210
0.000050
-0.000165
-0.000226
-0.000042
0.000147
0.000191
0.000265
0.000341
0.000380
0.000286
0.000260
0.000386
0.000383
0.000244
0.000286
0.000412
0.000328
0.000241
0.000333
0.000373
0.000265
0.000247
0.000317
0.000302
0.000170
0.000186
0.000359
0.000441
0.000354
0.000417
0.000428
0.000307
0.000215
0.000262
0.000320
0.000333
0.000291
0.000315
0.000367
0.000257
0.000094
0.000013
0.000029
0.000073
0.000170
0.000302
0.000289
0.000144
0.000136
0.000210
0.000194
0.000155
0.000142
0.000223
0.000349
0.000386
0.000428
0.000354
0.000073
-0.000060
0.000018
0.000126
0.000223
0.000325
0.000365
0.000338
0.000294
0.000294
0.000401
0.000438
0.000396
0.000404
0.000433
0.000435
0.000320
0.000273
0.000307
0.000249
0.000194
0.000268
0.000283
0.000210
0.000189
0.000307
0.000302
0.000320
0.000409
0.000517
0.000525
0.000412
0.000399
0.000420
0.000430
0.000328
0.000189
0.000144
0.000218
0.000310
0.000352
0.000346
0.000315
0.000307
0.000328
0.000257
0.000265
0.000299
0.000341
0.000412
0.000422
0.000391
0.000320
0.000210
0.000128
0.000194
0.000291
0.000315
0.000412
0.000470
0.000470
0.000428
0.000338
0.000260
0.000170
0.000199
0.000260
0.000317
0.000341
0.000417
0.000414
0.000359
0.000236
0.000071
0.000034
0.000152
0.000247
0.000265
0.000233
0.000344
0.000407
0.000317
0.000278
0.000336
0.000428
0.000399
0.000396
0.000467
0.000435
0.000257
0.000202
0.000228
0.000218
0.000149
0.000052
0.000037
0.000134
0.000181
0.000207
0.000226
0.000247
0.000317
0.000260
0.000136
0.000039
0.000063
0.000223
0.000338
0.000414
0.000430
0.000535
0.000551
0.000522
0.000485
0.000328
0.000178
0.000052
0.000026
0.000123
0.000194
0.000194
0.000236
0.000304
0.000323
0.000323
0.000241
0.000205
0.000341
0.000391
0.000404
0.000428
0.000496
0.000509
0.000414
0.000349
0.000312
0.000244
0.000220
0.000244
0.000409
0.000496
0.000517
0.000535
0.000459
0.000362
0.000307
0.000315
0.000325
0.000307
0.000278
0.000241
0.000212
0.000260
0.000338
0.000312
0.000304
0.000281
0.000278
0.000365
0.000430
0.000488
0.000543
0.000514
0.000438
0.000462
0.000454
0.000417
0.000315
0.000315
0.000352
0.000433
0.000493
0.000401
0.000244
0.000270
0.000365
0.000323
0.000268
0.000286
0.000325
0.000346
0.000349
0.000299
0.000275
0.000278
0.000270
0.000299
0.000289
0.000349
0.000409
0.000336
0.000307
0.000289
0.000270
0.000260
0.000336
0.000412
0.000425
0.000412
0.000365
0.000362
0.000317
0.000346
0.000378
0.000401
0.000244
0.000118
0.000218
0.000359
0.000346
0.000325
0.000336
0.000341
0.000197
0.000134
0.000291
0.000391
0.000328
0.000349
0.000425
0.000359
0.000281
0.000257
0.000226
0.000142
0.000194
0.000333
0.000414
0.000420
0.000407
0.000459
0.000404
0.000283
0.000239
0.000202
0.000210
0.000262
0.000349
0.000307
0.000262
0.000270
0.000239
0.000197
0.000160
0.000291
0.000312
0.000299
0.000357
0.000438
0.000441
0.000430
0.000522
0.000567
0.000533
0.000483
0.000546
0.000564
0.000409
0.000186
0.000215
0.000268
0.000207
0.000244
0.000383
0.000401
0.000331
0.000317
0.000352
0.000373
0.000352
0.000349
0.000362
0.000315
0.000310
0.000320
0.000218
0.000131
0.000212
0.000320
0.000341
0.000383
0.000412
0.000365
0.000323
0.000286
0.000315
0.000323
0.000291
0.000207
0.000178
0.000233
0.000380
0.000409
0.000357
0.000420
0.000483
0.000483
0.000470
0.000519
0.000540
0.000435
0.000341
0.000331
0.000286
0.000273
0.000299
0.000370
0.000346
0.000359
0.000456
0.000449
0.000289
0.000291
0.000373
0.000373
0.000338
0.000409
0.000501
0.000488
0.000480
0.000477
0.000425
0.000257
0.000223
0.000289
0.000393
0.000412
0.000396
0.000504
0.000538
0.000493
0.000307
0.000228
0.000341
0.000336
0.000218
0.000262
0.000375
0.000393
0.000425
0.000438
0.000320
0.000189
0.000089
0.000113
0.000165
0.000278
0.000414
0.000496
0.000430
0.000354
0.000346
0.000365
0.000299
0.000262
0.000370
0.000373
0.000307
0.000393
0.000325
0.000294
0.000286
0.000393
0.000451
0.000362
0.000299
0.000404
0.000425
0.000373
0.000341
0.000331
0.000268
0.000281
0.000401
0.000299
0.000139
0.000223
0.000430
0.000239
0.000105
0.000226
0.000325
0.000265
0.000247
0.000341
0.000296
0.000173
0.000294
0.000428
0.000391
0.000370
0.000315
0.000281
0.000205
0.000281
0.000328
0.000375
0.000401
0.000430
0.000454
0.000441
0.000441
0.000417
0.000268
0.000194
0.000220
0.000176
0.000176
0.000333
0.000462
0.000435
0.000407
0.000404
0.000380
0.000365
0.000336
0.000260
0.000241
0.000336
0.000352
0.000226
0.000089
0.000155
0.000249
0.000257
0.000281
0.000367
0.000375
0.000344
0.000249
0.000268
0.000362
0.000354
0.000344
0.000433
0.000451
0.000407
0.000443
0.000446
0.000218
0.000068
0.000131
0.000312
0.000407
0.000477
0.000561
0.000530
0.000517
0.000543
0.000517
0.000517
0.000530
0.000451
0.000317
0.000296
0.000378
0.000388
0.000375
0.000428
0.000509
0.000462
0.000485
0.000543
0.000559
0.000517
0.000517
0.000525
0.000367
0.000289
0.000380
0.000430
0.000289
0.000228
0.000294
0.000262
0.000189
0.000270
0.000315
0.000336
0.000333
0.000283
0.000299
0.000304
0.000283
0.000359
0.000441
0.000459
0.000407
0.000438
0.000522
0.000435
0.000365
0.000367
0.000338
0.000325
0.000404
0.000401
0.000367
0.000291
0.000299
0.000312
0.000307
0.000370
0.000480
0.000475
0.000391
0.000446
0.000446
0.000446
0.000456
0.000527
0.000533
0.000470
0.000472
0.000425
0.000270
0.000278
0.000375
0.000254
0.000197
0.000262
0.000354
0.000296
0.000294
0.000414
0.000485
0.000404
0.000357
0.000401
0.000470
0.000341
0.000218
0.000333
0.000446
0.000373
0.000270
0.000286
0.000352
0.000425
0.000485
0.000551
0.000588
0.000498
0.000380
0.000328
0.000260
0.000181
0.000092
0.000199
0.000299
0.000323
0.000278
0.000228
0.000338
0.000393
0.000430
0.000443
0.000496
0.000556
0.000488
0.000399
0.000336
0.000307
0.000278
0.000328
0.000294
0.000320
0.000441
0.000517
0.000533
0.000493
0.000451
0.000454
0.000522
0.000464
0.000299
0.000257
0.000359
0.000441
0.000422
0.000438
0.000433
0.000338
0.000304
0.000391
0.000443
0.000430
0.000275
0.000260
0.000291
0.000367
0.000386
0.000380
0.000370
0.000380
0.000399
0.000388
0.000375
0.000412
0.000456
0.000451
0.000409
0.000365
0.000451
0.000509
0.000438
0.000312
0.000210
0.000184
0.000268
0.000430
0.000446
0.000349
0.000404
0.000477
0.000475
0.000383
0.000359
0.000404
0.000373
0.000299
0.000357
0.000483
0.000493
0.000414
0.000420
0.000451
0.000378
0.000344
0.000380
0.000438
0.000430
0.000517
0.000535
0.000386
0.000346
0.000386
0.000362
0.000344
0.000414
0.000483
0.000449
0.000498
0.000488
0.000386
0.000328
0.000399
0.000428
0.000380
0.000404
0.000501
0.000470
0.000391
0.000438
0.000428
0.000407
0.000399
0.000299
0.000228
0.000262
0.000352
0.000336
0.000393
0.000422
0.000477
0.000454
0.000459
0.000540
0.000548
0.000580
0.000598
0.000475
0.000302
0.000317
0.000430
0.000404
0.000354
0.000393
0.000454
0.000435
0.000430
0.000506
0.000519
0.000456
0.000533
0.000682
0.000577
0.000480
0.000504
0.000477
0.000388
0.000336
0.000459
0.000493
0.000370
0.000296
0.000304
0.000270
0.000307
0.000407
0.000393
0.000325
0.000323
0.000299
0.000173
0.000155
0.000281
0.000331
0.000304
0.000331
0.000430
0.000367
0.000367
0.000428
0.000325
0.000215
0.000210
0.000323
0.000393
0.000446
0.000359
0.000278
0.000331
0.000388
0.000320
0.000260
0.000262
0.000281
0.000331
0.000378
0.000383
0.000393
0.000417
0.000522
0.000577
0.000533
0.000543
0.000514
0.000443
0.000441
0.000543
0.000517
0.000357
0.000325
0.000341
0.000352
0.000310
0.000388
0.000443
0.000451
0.000407
0.000441
0.000470
0.000470
0.000388
0.000388
0.000414
0.000438
0.000496
0.000517
0.000449
0.000433
0.000475
0.000498
0.000449
0.000438
0.000464
0.000375
0.000391
0.000517
0.000546
0.000483
0.000477
0.000540
0.000572
0.000567
0.000554
0.000540
0.000496
0.000472
0.000522
0.000577
0.000540
0.000438
0.000328
0.000215
0.000181
0.000291
0.000354
0.000344
0.000338
0.000393
0.000496
0.000585
0.000596
0.000580
0.000580
0.000548
0.000454
0.000417
0.000464
0.000451
0.000428
0.000391
0.000420
0.000441
0.000451
0.000396
0.000212
0.000149
0.000289
0.000388
0.000278
0.000273
0.000388
0.000493
0.000496
0.000498
0.000527
0.000451
0.000315
0.000331
0.000409
0.000407
0.000362
0.000407
0.000433
0.000433
0.000417
0.000480
0.000493
0.000506
0.000530
0.000582
0.000535
0.000517
0.000496
0.000451
0.000425
0.000446
0.000512
0.000522
0.000485
0.000430
0.000312
0.000194
0.000244
0.000380
0.000475
0.000472
0.000451
0.000483
0.000383
0.000328
0.000373
0.000472
0.000498
0.000467
0.000422
0.000425
0.000506
0.000559
0.000519
0.000488
0.000417
0.000425
0.000454
0.000451
0.000527
0.000572
0.000561
0.000543
0.000527
0.000467
0.000462
0.000462
0.000517
0.000467
0.000404
0.000412
0.000483
0.000459
0.000328
0.000270
0.000315
0.000380
0.000391
0.000399
0.000425
0.000420
0.000396
0.000396
0.000393
0.000417
0.000412
0.000456
0.000527
0.000543
0.000559
0.000596
0.000488
0.000386
0.000393
0.000373
0.000401
0.000438
0.000365
0.000228
0.000207
0.000349
0.000498
0.000420
0.000365
0.000477
0.000519
0.000414
0.000386
0.000485
0.000519
0.000485
0.000485
0.000572
0.000580
0.000540
0.000559
0.000567
0.000443
0.000391
0.000359
0.000362
0.000207
0.000152
0.000260
0.000454
0.000467
0.000438
0.000365
0.000239
0.000281
0.000420
0.000425
0.000396
0.000401
0.000462
0.000456
0.000425
0.000509
0.000488
0.000373
0.000404
0.000519
0.000546
0.000514
0.000501
0.000391
0.000362
0.000354
0.000409
0.000449
0.000375
0.000354
0.000375
0.000422
0.000527
0.000548
0.000488
0.000428
0.000409
0.000428
0.000491
0.000567
0.000588
0.000593
0.000564
0.000514
0.000462
0.000496
0.000527
0.000504
0.000501
0.000498
0.000575
0.000588
0.000519
0.000454
0.000407
0.000428
0.000485
0.000527
0.000464
0.000325
0.000312
0.000357
0.000462
0.000493
0.000454
0.000451
0.000428
0.000352
0.000296
0.000404
0.000512
0.000504
0.000483
0.000580
0.000609
0.000514
0.000485
0.000412
0.000362
0.000346
0.000472
0.000501
0.000417
0.000435
0.000414
0.000441
0.000438
0.000433
0.000488
0.000506
0.000496
0.000480
0.000454
0.000375
0.000270
0.000257
0.000275
0.000320
0.000414
0.000493
0.000496
0.000467
0.000456
0.000459
0.000446
0.000378
0.000278
0.000186
0.000184
0.000226
0.000312
0.000399
0.000504
0.000551
0.000564
0.000514
0.000430
0.000462
0.000459
0.000430
0.000454
0.000443
0.000485
0.000496
0.000438
0.000491
0.000519
0.000480
0.000459
0.000488
0.000548
0.000554
0.000567
0.000535
0.000488
0.000359
0.000239
0.000289
0.000357
0.000375
0.000409
0.000527
0.000559
0.000538
0.000538
0.000517
0.000470
0.000380
0.000370
0.000328
0.000202
0.000170
0.000262
0.000341
0.000341
0.000446
0.000554
0.000572
0.000454
0.000470
0.000556
0.000501
0.000464
0.000559
0.000622
0.000517
0.000407
0.000341
0.000291
0.000283
0.000352
0.000533
0.000611
0.000617
0.000674
0.000656
0.000575
0.000485
0.000373
0.000325
0.000349
0.000438
0.000519
0.000506
0.000446
0.000307
0.000294
0.000341
0.000320
0.000346
0.000401
0.000485
0.000472
0.000533
0.000548
0.000386
0.000202
0.000178
0.000323
0.000391
0.000441
0.000535
0.000601
0.000496
0.000407
0.000462
0.000533
0.000396
0.000341
0.000477
0.000517
0.000533
0.000567
0.000569
0.000404
0.000315
0.000449
0.000585
0.000561
0.000554
0.000590
0.000517
0.000414
0.000428
0.000449
0.000420
0.000446
0.000501
0.000522
0.000554
0.000556
0.000480
0.000438
0.000401
0.000493
0.000441
0.000380
0.000417
0.000399
0.000331
0.000375
0.000464
0.000475
0.000362
0.000438
0.000572
0.000546
0.000485
0.000546
0.000561
0.000514
0.000491
0.000506
0.000386
0.000328
0.000438
0.000496
0.000438
0.000435
0.000564
0.000603
0.000501
0.000349
0.000176
0.000184
0.000254
0.000320
0.000341
0.000430
0.000504
0.000485
0.000454
0.000383
0.000401
0.000388
0.000435
0.000488
0.000514
0.000603
0.000648
0.000653
0.000656
0.000582
0.000443
0.000430
0.000399
0.000425
0.000401
0.000430
0.000491
0.000538
0.000517
0.000493
0.000564
0.000519
0.000464
0.000480
0.000501
0.000472
0.000417
0.000349
0.000273
0.000268
0.000312
0.000409
0.000454
0.000422
0.000467
0.000561
0.000559
0.000546
0.000548
0.000480
0.000338
0.000260
0.000307
0.000317
0.000220
0.000249
0.000388
0.000404
0.000375
0.000475
0.000517
0.000331
0.000275
0.000459
0.000543
0.000380
0.000391
0.000551
0.000441
0.000254
0.000346
0.000480
0.000417
0.000362
0.000493
0.000567
0.000559
0.000546
0.000669
0.000590
0.000386
0.000467
0.000546
0.000519
0.000475
0.000543
0.000530
0.000501
0.000548
0.000577
0.000488
0.000388
0.000430
0.000506
0.000417
0.000412
0.000540
0.000606
0.000582
0.000512
0.000567
0.000575
0.000443
0.000422
0.000488
0.000530
0.000498
0.000522
0.000548
0.000488
0.000467
0.000548
0.000575
0.000514
0.000391
0.000365
0.000320
0.000241
0.000265
0.000396
0.000422
0.000443
0.000512
0.000527
0.000373
0.000239
0.000304
0.000409
0.000396
0.000375
0.000449
0.000527
0.000514
0.000522
0.000572
0.000446
0.000278
0.000338
0.000522
0.000575
0.000535
0.000619
0.000609
0.000459
0.000404
0.000514
0.000546
0.000433
0.000456
0.000548
0.000506
0.000380
0.000462
0.000577
0.000535
0.000522
0.000556
0.000617
0.000538
0.000451
0.000480
0.000483
0.000467
0.000554
0.000622
0.000582
0.000522
0.000543
