Start time = 18:33:36.994555
End time = 18:33:46.968676
laser_energy = 7.680
channel_1_dial = 850
channel_2_dial = 850
channel_3_dial = 850
channel_4_dial = 850
NG-1-LII = 0
NG-3-15399 = 0
NG-4-LII = 0
NG-4-15399 = 0
NG-5-LII = 0
NG-5-15399 = 0
NG-9-LII = 0
NG-9-15399 = 0
NG-10-01 = 0
NG-11-15399 = 0
NG-12-15399 = 0
NG-4A-2001 = 0
NG-4B-2001 = 0
NG-5A-2001 = 0
NG-3-2001 = 0
NG-5B-2001 = 0
NG-1-2001 = 0
NG-9-2001 = 0
NG-10-2001 = 0
NG-11-2001 = 0
NG-12-2001 = 0
AND-200SN09 = 0
AND-100SN09 = 0
AND-050SN09 = 0
AND-030SN09 = 0
AND-015SN05 = 0
PMT#1Voltage = 0
PMT#2Voltage = 0
t0(sec) = 0.000000E+0
dt(sec) = 4.000000E-10
F1:INSP "
DESCRIPTOR_NAME    : WAVEDESC           
TEMPLATE_NAME      : LECROY_2_3         
COMM_TYPE          : word               
COMM_ORDER         : HIFIRST            
WAVE_DESCRIPTOR    : 346                
USER_TEXT          : 0                  
RES_DESC1          : 0                  
TRIGTIME_ARRAY     : 0                  
RIS_TIME_ARRAY     : 0                  
RES_ARRAY1         : 0                  
WAVE_ARRAY_1       : 10002              
WAVE_ARRAY_2       : 0                  
RES_ARRAY2         : 0                  
RES_ARRAY3         : 0                  
INSTRUMENT_NAME    : LECROYHDO6104      
INSTRUMENT_NUMBER  : 6308               
TRACE_LABEL        :                    
RESERVED1          : 5001               
RESERVED2          : 0                  
WAVE_ARRAY_COUNT   : 5001               
PNTS_PER_SCREEN    : 5000               
FIRST_VALID_PNT    : 0                  
LAST_VALID_PNT     : 5000               
FIRST_POINT        : 0                  
SPARSING_FACTOR    : 1                  
SEGMENT_INDEX      : 0                  
SUBARRAY_COUNT     : 1                  
SWEEPS_PER_ACQ     : 200                
POINTS_PER_PAIR    : 0                  
PAIR_OFFSET        : 0                  
VERTICAL_GAIN      : 2.6238e-006        
VERTICAL_OFFSET    : 6.5501e-002        
MAX_VALUE          : 3.0816e+004        
MIN_VALUE          : 1.3388e+004        
NOMINAL_BITS       : 16                 
NOM_SUBARRAY_COUNT : 1                  
HORIZ_INTERVAL     : 4.0000e-010        
HORIZ_OFFSET       : -2.00000000e-007   
PIXEL_OFFSET       : -2.00000000e-007   
VERTUNIT           : Unit Name = V
HORUNIT            : Unit Name = S
HORIZ_UNCERTAINTY  : 1.0000e-012        
TRIGGER_TIME       : Date = APR 17, 2024, Time = 19:33:32.853298883
ACQ_DURATION       : 1.0049e+001        
RECORD_TYPE        : single_sweep       
PROCESSING_DONE    : no_processing      
RESERVED5          : 0                  
RIS_SWEEPS         : 1                  
TIMEBASE           : 200_ns/div         
VERT_COUPLING      : DC_50_Ohms         
PROBE_ATT          : 1.0000e+000        
FIXED_VERT_GAIN    : 5_mV/div           
BANDWIDTH_LIMIT    : off                
VERTICAL_VERNIER   : 1.1600e+000        
ACQ_VERT_OFFSET    : 0.0000e+000        
WAVE_SOURCE        : UNKNOWN            
"
0.000144
0.000160
0.000136
0.000136
0.000142
0.000160
0.000134
0.000136
0.000149
0.000149
0.000144
0.000144
0.000113
0.000139
0.000100
0.000073
0.000060
0.000081
0.000045
0.000066
0.000094
0.000100
0.000115
0.000134
0.000139
0.000176
0.000136
0.000178
0.000173
0.000170
0.000152
0.000173
0.000155
0.000176
0.000149
0.000144
0.000144
0.000155
0.000134
0.000142
0.000115
0.000142
0.000118
0.000118
0.000118
0.000147
0.000126
0.000149
0.000144
0.000134
0.000149
0.000178
0.000186
0.000231
0.000184
0.000176
0.000186
0.000170
0.000118
0.000131
0.000113
0.000131
0.000108
0.000139
0.000100
0.000073
0.000071
0.000100
0.000081
0.000129
0.000097
0.000155
0.000121
0.000152
0.000142
0.000144
0.000142
0.000134
0.000157
0.000165
0.000139
0.000160
0.000118
0.000113
0.000094
0.000105
0.000087
0.000108
0.000089
0.000123
0.000100
0.000144
0.000131
0.000126
0.000149
0.000139
0.000152
0.000152
0.000126
0.000147
0.000115
0.000129
0.000139
0.000160
0.000147
0.000160
0.000147
0.000170
0.000113
0.000160
0.000181
0.000149
0.000121
0.000155
0.000055
0.000079
0.000076
0.000092
0.000092
0.000108
0.000097
0.000094
0.000118
0.000105
0.000100
0.000160
0.000131
0.000165
0.000149
0.000142
0.000155
0.000149
0.000144
0.000149
0.000134
0.000129
0.000121
0.000165
0.000142
0.000136
0.000105
0.000102
0.000094
0.000073
0.000081
0.000118
0.000097
0.000121
0.000139
0.000149
0.000131
0.000152
0.000147
0.000178
0.000136
0.000149
0.000115
0.000160
0.000139
0.000178
0.000155
0.000123
0.000131
0.000142
0.000115
0.000131
0.000102
0.000123
0.000108
0.000163
0.000118
0.000136
0.000147
0.000176
0.000149
0.000170
0.000184
0.000178
0.000170
0.000184
0.000147
0.000149
0.000129
0.000118
0.000100
0.000105
0.000052
0.000097
0.000087
0.000089
0.000110
0.000084
0.000139
0.000160
0.000170
0.000176
0.000168
0.000197
0.000173
0.000194
0.000155
0.000178
0.000142
0.000149
0.000110
0.000118
0.000110
0.000108
0.000123
0.000100
0.000110
0.000113
0.000073
0.000118
0.000092
0.000097
0.000081
0.000142
0.000102
0.000142
0.000115
0.000165
0.000121
0.000149
0.000170
0.000155
0.000178
0.000168
0.000129
0.000155
0.000121
0.000113
0.000134
0.000129
0.000108
0.000113
0.000121
0.000134
0.000102
0.000155
0.000149
0.000147
0.000121
0.000139
0.000134
0.000131
0.000134
0.000168
0.000123
0.000139
0.000136
0.000136
0.000136
0.000136
0.000129
0.000126
0.000118
0.000105
0.000123
0.000136
0.000123
0.000152
0.000115
0.000176
0.000139
0.000155
0.000163
0.000165
0.000139
0.000152
0.000144
0.000157
0.000142
0.000129
0.000100
0.000092
0.000076
0.000087
0.000063
0.000058
0.000076
0.000094
0.000089
0.000129
0.000126
0.000155
0.000131
0.000123
0.000108
0.000126
0.000131
0.000142
0.000115
0.000126
0.000123
0.000147
0.000121
0.000157
0.000131
0.000136
0.000131
0.000131
0.000102
0.000092
0.000089
0.000105
0.000060
0.000089
0.000089
0.000131
0.000134
0.000155
0.000147
0.000163
0.000152
0.000160
0.000160
0.000176
0.000155
0.000149
0.000139
0.000152
0.000144
0.000139
0.000121
0.000123
0.000108
0.000110
0.000108
0.000115
0.000100
0.000149
0.000139
0.000155
0.000142
0.000136
0.000149
0.000142
0.000149
0.000152
0.000142
0.000178
0.000147
0.000178
0.000136
0.000149
0.000134
0.000142
0.000139
0.000134
0.000100
0.000108
0.000100
0.000105
0.000100
0.000118
0.000100
0.000134
0.000115
0.000155
0.000155
0.000165
0.000152
0.000189
0.000160
0.000155
0.000149
0.000136
0.000149
0.000147
0.000134
0.000129
0.000105
0.000081
0.000076
0.000066
0.000076
0.000118
0.000118
0.000134
0.000147
0.000149
0.000168
0.000189
0.000178
0.000184
0.000157
0.000165
0.000129
0.000147
0.000094
0.000126
0.000113
0.000123
0.000097
0.000115
0.000097
0.000097
0.000097
0.000129
0.000121
0.000142
0.000163
0.000165
0.000149
0.000165
0.000152
0.000168
0.000184
0.000178
0.000160
0.000139
0.000134
0.000123
0.000079
0.000142
0.000121
0.000155
0.000121
0.000118
0.000110
0.000129
0.000094
0.000068
0.000071
0.000094
0.000113
0.000094
0.000134
0.000170
0.000136
0.000157
0.000126
0.000136
0.000113
0.000173
0.000197
0.000218
0.000173
0.000110
0.000034
0.000050
0.000037
0.000063
0.000073
0.000089
0.000102
0.000134
0.000157
0.000160
0.000163
0.000157
0.000123
0.000113
0.000081
0.000134
0.000163
0.000160
0.000142
0.000157
0.000105
0.000134
0.000170
0.000184
0.000199
0.000244
0.000197
0.000165
0.000100
0.000039
0.000052
0.000073
0.000094
0.000134
0.000105
0.000136
0.000142
0.000142
0.000134
0.000144
0.000136
0.000165
0.000136
0.000142
0.000157
0.000160
0.000173
0.000202
0.000147
0.000178
0.000173
0.000168
0.000184
0.000157
0.000055
0.000063
0.000021
0.000045
0.000052
0.000050
0.000039
0.000073
0.000066
0.000079
0.000084
0.000149
0.000197
0.000268
0.000323
0.000365
0.000336
0.000307
0.000228
0.000189
0.000129
0.000084
0.000039
-0.000000
-0.000063
-0.000029
-0.000042
0.000013
0.000052
0.000123
0.000165
0.000226
0.000236
0.000283
0.000270
0.000228
0.000189
0.000173
0.000123
0.000115
0.000034
0.000081
0.000110
0.000139
0.000126
0.000129
0.000121
0.000168
0.000170
0.000226
0.000236
0.000244
0.000228
0.000199
0.000160
0.000147
0.000094
0.000076
0.000066
0.000087
-0.000016
0.000039
0.000045
0.000042
0.000026
-0.000032
-0.000226
-0.000491
-0.000976
-0.001761
-0.002842
-0.004180
-0.005801
-0.007407
-0.009212
-0.011017
-0.012770
-0.014410
-0.015853
-0.016874
-0.017784
-0.018403
-0.018726
-0.018852
-0.018878
-0.018842
-0.018582
-0.018191
-0.017582
-0.016824
-0.016084
-0.015360
-0.014788
-0.014176
-0.013597
-0.012985
-0.012458
-0.011970
-0.011571
-0.011303
-0.010968
-0.010611
-0.010133
-0.009590
-0.009288
-0.009118
-0.008905
-0.008701
-0.008457
-0.008176
-0.007995
-0.007871
-0.007701
-0.007486
-0.007310
-0.007045
-0.006704
-0.006510
-0.006465
-0.006470
-0.006423
-0.006339
-0.006308
-0.006313
-0.006365
-0.006405
-0.006525
-0.006565
-0.006560
-0.006633
-0.006701
-0.006730
-0.006756
-0.006785
-0.006735
-0.006609
-0.006457
-0.006281
-0.006176
-0.006153
-0.006072
-0.005990
-0.005838
-0.005644
-0.005479
-0.005277
-0.005161
-0.005069
-0.004933
-0.004872
-0.004872
-0.004841
-0.004760
-0.004571
-0.004466
-0.004245
-0.004109
-0.003959
-0.003925
-0.003938
-0.003910
-0.003820
-0.003660
-0.003419
-0.003233
-0.003075
-0.003020
-0.002939
-0.002923
-0.002947
-0.002996
-0.003088
-0.003117
-0.003104
-0.003038
-0.002907
-0.002847
-0.002844
-0.002781
-0.002802
-0.002975
-0.003099
-0.003125
-0.003115
-0.003115
-0.003101
-0.003070
-0.003073
-0.003059
-0.003025
-0.002949
-0.002860
-0.002776
-0.002624
-0.002524
-0.002409
-0.002430
-0.002485
-0.002587
-0.002697
-0.002781
-0.002752
-0.002760
-0.002682
-0.002598
-0.002592
-0.002571
-0.002532
-0.002514
-0.002443
-0.002338
-0.002207
-0.002083
-0.001892
-0.001755
-0.001661
-0.001708
-0.001742
-0.001719
-0.001637
-0.001629
-0.001535
-0.001477
-0.001490
-0.001569
-0.001532
-0.001511
-0.001483
-0.001561
-0.001700
-0.001879
-0.002034
-0.002133
-0.002167
-0.002159
-0.002107
-0.002052
-0.001923
-0.001847
-0.001721
-0.001635
-0.001514
-0.001490
-0.001422
-0.001417
-0.001367
-0.001412
-0.001435
-0.001451
-0.001420
-0.001406
-0.001330
-0.001330
-0.001296
-0.001312
-0.001288
-0.001291
-0.001288
-0.001238
-0.001139
-0.001147
-0.001094
-0.001147
-0.001170
-0.001231
-0.001236
-0.001278
-0.001278
-0.001278
-0.001236
-0.001233
-0.001176
-0.001115
-0.001042
-0.001013
-0.000968
-0.000987
-0.001015
-0.001015
-0.001065
-0.001215
-0.001296
-0.001399
-0.001454
-0.001456
-0.001362
-0.001299
-0.001220
-0.001141
-0.001047
-0.001013
-0.000976
-0.000926
-0.000884
-0.000850
-0.000808
-0.000821
-0.000866
-0.000908
-0.000955
-0.001078
-0.001102
-0.001078
-0.001094
-0.001139
-0.001089
-0.001139
-0.001097
-0.001102
-0.001065
-0.001026
-0.000895
-0.000853
-0.000834
-0.000848
-0.000800
-0.000853
-0.000882
-0.000892
-0.000871
-0.000926
-0.000960
-0.000934
-0.000897
-0.000918
-0.000887
-0.000897
-0.000918
-0.000913
-0.000900
-0.000882
-0.000842
-0.000848
-0.000816
-0.000890
-0.000905
-0.000918
-0.000911
-0.000895
-0.000840
-0.000779
-0.000719
-0.000648
-0.000614
-0.000606
-0.000611
-0.000674
-0.000792
-0.000963
-0.000994
-0.001010
-0.000987
-0.000929
-0.000848
-0.000816
-0.000787
-0.000782
-0.000761
-0.000698
-0.000632
-0.000661
-0.000653
-0.000659
-0.000611
-0.000638
-0.000577
-0.000611
-0.000604
-0.000598
-0.000609
-0.000680
-0.000722
-0.000790
-0.000806
-0.000842
-0.000845
-0.000816
-0.000792
-0.000735
-0.000667
-0.000667
-0.000625
-0.000593
-0.000580
-0.000638
-0.000638
-0.000653
-0.000604
-0.000580
-0.000525
-0.000506
-0.000535
-0.000580
-0.000606
-0.000687
-0.000687
-0.000748
-0.000722
-0.000701
-0.000653
-0.000604
-0.000590
-0.000604
-0.000601
-0.000580
-0.000480
-0.000488
-0.000443
-0.000438
-0.000433
-0.000499
-0.000504
-0.000533
-0.000533
-0.000585
-0.000567
-0.000569
-0.000601
-0.000659
-0.000695
-0.000740
-0.000758
-0.000769
-0.000732
-0.000719
-0.000635
-0.000585
-0.000509
-0.000459
-0.000386
-0.000409
-0.000381
-0.000415
-0.000417
-0.000446
-0.000443
-0.000514
-0.000530
-0.000598
-0.000619
-0.000630
-0.000577
-0.000567
-0.000548
-0.000551
-0.000559
-0.000583
-0.000569
-0.000559
-0.000472
-0.000459
-0.000454
-0.000467
-0.000501
-0.000567
-0.000556
-0.000538
-0.000499
-0.000499
-0.000459
-0.000462
-0.000464
-0.000472
-0.000451
-0.000538
-0.000520
-0.000512
-0.000512
-0.000527
-0.000493
-0.000514
-0.000520
-0.000564
-0.000577
-0.000611
-0.000572
-0.000598
-0.000638
-0.000635
-0.000588
-0.000580
-0.000548
-0.000527
-0.000420
-0.000449
-0.000436
-0.000407
-0.000415
-0.000443
-0.000420
-0.000402
-0.000375
-0.000386
-0.000344
-0.000391
-0.000339
-0.000346
-0.000302
-0.000325
-0.000333
-0.000402
-0.000422
-0.000433
-0.000478
-0.000514
-0.000464
-0.000501
-0.000527
-0.000541
-0.000527
-0.000546
-0.000583
-0.000575
-0.000530
-0.000493
-0.000459
-0.000433
-0.000394
-0.000415
-0.000336
-0.000344
-0.000323
-0.000318
-0.000291
-0.000278
-0.000265
-0.000291
-0.000312
-0.000386
-0.000375
-0.000443
-0.000457
-0.000509
-0.000485
-0.000499
-0.000509
-0.000535
-0.000506
-0.000480
-0.000415
-0.000352
-0.000318
-0.000260
-0.000210
-0.000226
-0.000186
-0.000194
-0.000205
-0.000286
-0.000362
-0.000443
-0.000491
-0.000535
-0.000530
-0.000546
-0.000499
-0.000480
-0.000415
-0.000391
-0.000367
-0.000378
-0.000386
-0.000373
-0.000341
-0.000336
-0.000255
-0.000205
-0.000110
-0.000142
-0.000142
-0.000136
-0.000147
-0.000218
-0.000255
-0.000341
-0.000399
-0.000438
-0.000415
-0.000446
-0.000420
-0.000438
-0.000454
-0.000438
-0.000375
-0.000402
-0.000318
-0.000294
-0.000268
-0.000278
-0.000289
-0.000304
-0.000273
-0.000270
-0.000241
-0.000304
-0.000323
-0.000381
-0.000402
-0.000436
-0.000404
-0.000454
-0.000428
-0.000409
-0.000365
-0.000383
-0.000333
-0.000281
-0.000223
-0.000257
-0.000241
-0.000252
-0.000239
-0.000226
-0.000157
-0.000173
-0.000181
-0.000202
-0.000215
-0.000220
-0.000210
-0.000249
-0.000257
-0.000336
-0.000373
-0.000396
-0.000354
-0.000362
-0.000360
-0.000365
-0.000352
-0.000344
-0.000349
-0.000336
-0.000281
-0.000291
-0.000294
-0.000283
-0.000265
-0.000226
-0.000213
-0.000241
-0.000163
-0.000210
-0.000205
-0.000255
-0.000247
-0.000257
-0.000262
-0.000276
-0.000304
-0.000318
-0.000323
-0.000315
-0.000260
-0.000228
-0.000189
-0.000171
-0.000157
-0.000157
-0.000131
-0.000155
-0.000131
-0.000163
-0.000123
-0.000155
-0.000173
-0.000181
-0.000255
-0.000294
-0.000291
-0.000297
-0.000278
-0.000257
-0.000234
-0.000262
-0.000247
-0.000252
-0.000257
-0.000255
-0.000247
-0.000249
-0.000239
-0.000207
-0.000223
-0.000207
-0.000142
-0.000163
-0.000163
-0.000152
-0.000173
-0.000231
-0.000268
-0.000286
-0.000291
-0.000354
-0.000320
-0.000333
-0.000328
-0.000312
-0.000241
-0.000252
-0.000220
-0.000210
-0.000178
-0.000231
-0.000186
-0.000181
-0.000197
-0.000299
-0.000283
-0.000297
-0.000283
-0.000299
-0.000310
-0.000357
-0.000349
-0.000375
-0.000339
-0.000310
-0.000239
-0.000234
-0.000197
-0.000215
-0.000220
-0.000220
-0.000192
-0.000207
-0.000163
-0.000160
-0.000152
-0.000176
-0.000173
-0.000155
-0.000150
-0.000205
-0.000207
-0.000244
-0.000268
-0.000304
-0.000278
-0.000278
-0.000255
-0.000223
-0.000205
-0.000215
-0.000157
-0.000126
-0.000108
-0.000139
-0.000100
-0.000144
-0.000173
-0.000186
-0.000178
-0.000226
-0.000234
-0.000276
-0.000302
-0.000291
-0.000286
-0.000255
-0.000231
-0.000262
-0.000223
-0.000234
-0.000244
-0.000234
-0.000223
-0.000244
-0.000207
-0.000199
-0.000155
-0.000152
-0.000118
-0.000129
-0.000129
-0.000155
-0.000139
-0.000163
-0.000184
-0.000218
-0.000213
-0.000215
-0.000236
-0.000228
-0.000236
-0.000286
-0.000257
-0.000281
-0.000226
-0.000199
-0.000236
-0.000186
-0.000218
-0.000239
-0.000171
-0.000189
-0.000150
-0.000126
-0.000163
-0.000210
-0.000197
-0.000213
-0.000189
-0.000215
-0.000218
-0.000297
-0.000297
-0.000333
-0.000378
-0.000391
-0.000352
-0.000318
-0.000223
-0.000199
-0.000150
-0.000134
-0.000084
-0.000053
-0.000042
-0.000095
-0.000039
-0.000060
-0.000097
-0.000123
-0.000121
-0.000163
-0.000165
-0.000205
-0.000144
-0.000157
-0.000136
-0.000144
-0.000136
-0.000163
-0.000144
-0.000173
-0.000168
-0.000147
-0.000168
-0.000184
-0.000131
-0.000131
-0.000068
-0.000071
-0.000034
-0.000045
-0.000063
-0.000108
-0.000121
-0.000165
-0.000173
-0.000207
-0.000236
-0.000262
-0.000239
-0.000289
-0.000226
-0.000241
-0.000202
-0.000192
-0.000131
-0.000110
-0.000055
-0.000063
-0.000039
-0.000026
-0.000026
-0.000005
-0.000021
-0.000097
-0.000089
-0.000126
-0.000165
-0.000231
-0.000257
-0.000302
-0.000278
-0.000262
-0.000205
-0.000228
-0.000152
-0.000157
-0.000134
-0.000131
-0.000050
-0.000013
0.000005
0.000008
0.000016
-0.000032
-0.000045
-0.000074
-0.000089
-0.000102
-0.000097
-0.000142
-0.000136
-0.000199
-0.000184
-0.000223
-0.000226
-0.000226
-0.000192
-0.000213
-0.000184
-0.000184
-0.000157
-0.000205
-0.000144
-0.000123
-0.000126
-0.000092
-0.000068
-0.000087
-0.000058
-0.000081
-0.000047
-0.000058
-0.000029
-0.000060
-0.000045
-0.000092
-0.000079
-0.000129
-0.000165
-0.000168
-0.000131
-0.000176
-0.000144
-0.000126
-0.000081
-0.000066
-0.000034
-0.000058
-0.000071
-0.000095
-0.000081
-0.000100
-0.000089
-0.000136
-0.000144
-0.000152
-0.000157
-0.000184
-0.000184
-0.000239
-0.000241
-0.000278
-0.000220
-0.000189
-0.000163
-0.000131
-0.000118
-0.000113
-0.000113
-0.000121
-0.000113
-0.000134
-0.000079
-0.000113
-0.000068
-0.000079
-0.000060
-0.000079
-0.000102
-0.000121
-0.000089
-0.000102
-0.000053
-0.000058
-0.000029
-0.000029
-0.000047
-0.000058
-0.000047
-0.000089
-0.000050
-0.000037
-0.000003
-0.000003
-0.000003
-0.000011
-0.000042
-0.000076
-0.000087
-0.000110
-0.000116
-0.000110
-0.000113
-0.000144
-0.000084
-0.000113
-0.000066
-0.000116
-0.000066
-0.000097
-0.000081
-0.000095
-0.000079
-0.000074
-0.000034
-0.000026
-0.000011
-0.000032
-0.000003
-0.000003
0.000003
-0.000029
-0.000032
-0.000039
-0.000024
-0.000047
-0.000037
-0.000068
-0.000047
-0.000071
-0.000089
-0.000063
-0.000039
-0.000079
-0.000039
-0.000060
-0.000029
-0.000037
-0.000063
-0.000074
-0.000089
-0.000100
-0.000076
-0.000097
-0.000105
-0.000097
-0.000087
-0.000095
-0.000071
-0.000071
-0.000042
-0.000060
-0.000063
-0.000108
-0.000126
-0.000131
-0.000123
-0.000142
-0.000139
-0.000160
-0.000142
-0.000142
-0.000108
-0.000113
-0.000081
-0.000097
-0.000087
-0.000126
-0.000100
-0.000089
-0.000084
-0.000042
-0.000013
-0.000047
0.000005
-0.000037
-0.000026
-0.000105
-0.000105
-0.000100
-0.000121
-0.000147
-0.000118
-0.000108
-0.000068
-0.000026
0.000003
0.000005
0.000042
0.000021
0.000042
0.000008
0.000013
-0.000021
-0.000005
-0.000050
-0.000039
-0.000110
-0.000108
-0.000142
-0.000134
-0.000165
-0.000110
-0.000079
-0.000058
-0.000074
-0.000076
-0.000110
-0.000110
-0.000139
-0.000102
-0.000108
-0.000095
-0.000102
-0.000063
-0.000089
-0.000079
-0.000113
-0.000089
-0.000076
-0.000058
-0.000095
-0.000053
-0.000047
-0.000092
-0.000105
-0.000074
-0.000081
-0.000026
-0.000050
0.000013
-0.000032
-0.000029
-0.000079
-0.000092
-0.000102
-0.000102
-0.000110
-0.000063
-0.000050
-0.000013
-0.000032
0.000031
-0.000003
-0.000018
-0.000050
-0.000055
-0.000113
-0.000079
-0.000136
-0.000084
-0.000053
-0.000053
-0.000047
-0.000026
-0.000045
-0.000008
-0.000047
-0.000050
-0.000076
-0.000018
-0.000037
-0.000016
-0.000013
0.000021
0.000005
-0.000003
-0.000042
-0.000037
-0.000021
-0.000003
-0.000042
-0.000032
-0.000039
-0.000039
-0.000026
0.000005
-0.000032
-0.000005
-0.000024
-0.000018
-0.000050
-0.000016
-0.000013
-0.000029
-0.000060
-0.000026
-0.000071
-0.000045
-0.000053
-0.000047
-0.000034
-0.000011
-0.000011
-0.000011
-0.000013
0.000010
-0.000016
-0.000063
-0.000100
-0.000095
-0.000102
-0.000102
-0.000150
-0.000147
-0.000160
-0.000152
-0.000079
-0.000058
-0.000055
-0.000053
-0.000050
-0.000016
-0.000021
0.000010
0.000010
0.000003
-0.000029
-0.000032
-0.000045
-0.000011
-0.000037
-0.000008
0.000010
0.000052
0.000029
0.000050
0.000021
0.000058
0.000024
0.000052
0.000016
0.000003
-0.000053
-0.000042
-0.000071
-0.000081
-0.000116
-0.000089
-0.000110
-0.000071
-0.000071
-0.000071
-0.000050
-0.000042
-0.000071
0.000003
-0.000008
0.000013
0.000013
-0.000026
-0.000053
-0.000013
-0.000032
-0.000026
-0.000026
-0.000013
-0.000026
0.000016
-0.000000
0.000013
-0.000013
-0.000008
0.000010
0.000024
-0.000000
0.000045
0.000052
0.000060
0.000037
0.000026
-0.000016
-0.000003
0.000003
0.000005
0.000024
0.000073
0.000042
0.000071
0.000063
0.000076
0.000029
0.000066
-0.000021
-0.000029
-0.000034
0.000008
-0.000032
0.000008
0.000003
-0.000037
-0.000068
-0.000045
-0.000084
-0.000100
-0.000129
-0.000192
-0.000205
-0.000223
-0.000199
-0.000160
-0.000163
-0.000118
-0.000102
-0.000105
-0.000079
-0.000037
-0.000021
-0.000024
-0.000047
-0.000011
-0.000026
-0.000032
-0.000034
-0.000008
-0.000021
-0.000053
-0.000102
-0.000053
-0.000066
-0.000063
-0.000037
-0.000039
-0.000066
-0.000032
-0.000053
-0.000008
-0.000053
-0.000037
-0.000068
-0.000047
-0.000066
-0.000047
-0.000108
-0.000100
-0.000108
-0.000063
-0.000095
-0.000113
-0.000176
-0.000131
-0.000155
-0.000102
-0.000063
-0.000068
-0.000084
-0.000050
-0.000050
-0.000066
-0.000047
-0.000029
-0.000024
0.000021
0.000003
0.000016
0.000042
0.000058
0.000034
0.000031
-0.000013
-0.000026
-0.000024
-0.000042
-0.000045
-0.000037
-0.000079
-0.000021
-0.000076
-0.000060
-0.000063
-0.000047
-0.000076
-0.000026
-0.000045
0.000005
-0.000003
0.000037
0.000039
0.000047
0.000029
0.000063
0.000045
0.000066
0.000050
0.000005
-0.000034
0.000005
-0.000032
-0.000026
-0.000058
-0.000000
-0.000013
-0.000011
-0.000008
0.000008
-0.000008
-0.000008
-0.000066
-0.000066
-0.000084
-0.000060
-0.000032
-0.000005
-0.000016
-0.000003
-0.000029
0.000005
0.000003
0.000013
-0.000000
0.000016
-0.000032
-0.000018
-0.000050
-0.000029
-0.000021
-0.000029
-0.000029
-0.000003
-0.000026
0.000018
-0.000003
-0.000008
-0.000021
-0.000000
-0.000021
0.000045
0.000045
0.000105
0.000081
0.000129
0.000126
0.000123
0.000060
0.000021
-0.000021
-0.000037
-0.000100
-0.000134
-0.000152
-0.000102
-0.000113
-0.000076
-0.000118
-0.000102
-0.000142
-0.000071
-0.000045
0.000003
-0.000008
0.000008
-0.000005
-0.000021
-0.000053
-0.000060
-0.000055
-0.000045
-0.000081
-0.000058
-0.000039
-0.000018
-0.000037
-0.000034
-0.000045
0.000008
0.000005
0.000052
0.000050
0.000084
0.000050
0.000050
0.000039
0.000031
0.000021
0.000026
0.000005
0.000039
0.000039
0.000050
0.000037
0.000050
-0.000011
0.000010
-0.000013
0.000005
-0.000008
-0.000003
-0.000003
-0.000016
-0.000034
-0.000008
-0.000024
0.000024
0.000003
0.000047
-0.000005
0.000010
-0.000016
-0.000045
-0.000058
-0.000066
-0.000047
-0.000037
-0.000032
-0.000011
-0.000037
-0.000024
-0.000026
0.000016
-0.000024
-0.000011
0.000005
0.000031
0.000071
0.000052
0.000055
0.000073
0.000024
0.000052
0.000052
0.000068
0.000026
0.000042
0.000042
0.000037
0.000003
0.000016
0.000024
0.000018
0.000039
0.000055
-0.000024
0.000018
0.000031
0.000039
0.000060
0.000108
0.000089
0.000105
0.000089
0.000089
0.000047
0.000066
0.000052
0.000063
0.000013
0.000045
0.000050
0.000042
-0.000011
-0.000016
-0.000029
-0.000045
-0.000076
-0.000089
-0.000097
-0.000068
-0.000058
-0.000016
0.000008
0.000026
0.000016
0.000045
0.000026
0.000055
0.000021
0.000003
-0.000013
-0.000011
-0.000050
-0.000000
-0.000029
0.000024
0.000018
0.000024
-0.000026
-0.000018
-0.000055
-0.000042
-0.000016
0.000008
-0.000005
0.000024
-0.000000
0.000081
0.000066
0.000089
0.000108
0.000094
0.000063
0.000094
0.000047
0.000071
0.000042
0.000042
0.000039
0.000055
0.000010
0.000005
-0.000029
-0.000032
-0.000034
-0.000029
-0.000032
0.000024
0.000018
0.000042
0.000066
0.000076
0.000063
0.000063
0.000026
0.000037
0.000037
0.000018
-0.000008
0.000039
-0.000034
-0.000050
-0.000050
-0.000047
-0.000042
-0.000047
-0.000063
-0.000011
-0.000008
0.000013
0.000008
0.000055
0.000042
0.000066
0.000021
0.000060
0.000060
0.000079
0.000037
0.000089
0.000047
0.000063
0.000045
0.000060
0.000060
0.000063
0.000081
0.000084
0.000045
0.000029
0.000003
0.000026
0.000021
0.000047
0.000045
0.000058
0.000055
0.000052
0.000066
0.000055
0.000068
0.000102
0.000066
0.000081
0.000084
0.000052
0.000021
0.000060
0.000010
0.000026
0.000005
0.000024
0.000008
0.000018
-0.000037
-0.000016
0.000021
0.000013
-0.000003
0.000018
-0.000005
-0.000021
-0.000047
-0.000016
-0.000024
-0.000013
-0.000018
0.000024
-0.000021
0.000021
-0.000024
-0.000018
-0.000016
0.000003
-0.000032
-0.000026
-0.000055
-0.000047
-0.000058
-0.000050
-0.000060
-0.000034
-0.000042
-0.000011
0.000003
0.000068
0.000045
0.000068
0.000052
0.000084
0.000047
0.000047
0.000052
0.000058
0.000047
0.000068
0.000045
0.000047
0.000031
0.000058
0.000010
0.000034
0.000016
0.000013
0.000005
0.000039
0.000024
0.000034
0.000039
0.000042
0.000055
0.000087
0.000071
0.000113
0.000081
0.000100
0.000060
0.000068
0.000045
0.000094
0.000037
0.000029
-0.000005
-0.000003
-0.000029
-0.000042
-0.000018
-0.000005
-0.000013
0.000018
0.000008
0.000039
0.000047
0.000100
0.000092
0.000108
0.000060
0.000076
0.000060
0.000068
0.000045
0.000060
0.000029
0.000050
-0.000011
0.000005
-0.000021
0.000016
-0.000018
-0.000016
0.000042
0.000050
0.000018
0.000034
0.000042
0.000084
0.000063
0.000092
0.000063
0.000010
-0.000003
0.000034
-0.000008
0.000016
-0.000018
0.000026
0.000026
0.000037
0.000018
0.000039
0.000031
0.000021
-0.000026
0.000003
-0.000034
-0.000037
0.000003
0.000045
0.000039
0.000039
0.000024
0.000031
-0.000005
0.000018
0.000034
0.000039
0.000024
0.000026
-0.000013
-0.000011
0.000026
0.000021
0.000010
0.000050
0.000003
-0.000011
-0.000018
-0.000005
-0.000018
0.000003
0.000021
0.000079
0.000016
0.000003
-0.000016
-0.000024
-0.000013
0.000029
0.000010
0.000029
0.000034
0.000029
0.000026
0.000076
0.000076
0.000079
0.000055
0.000063
0.000066
0.000073
0.000024
0.000013
0.000018
0.000021
-0.000016
0.000016
-0.000011
0.000005
0.000010
-0.000047
-0.000055
-0.000071
-0.000074
-0.000037
-0.000032
-0.000011
-0.000005
0.000026
0.000050
0.000068
0.000081
0.000094
0.000079
0.000079
0.000076
0.000081
0.000034
0.000045
0.000039
0.000047
0.000055
0.000105
0.000063
0.000063
0.000066
0.000042
0.000013
0.000047
0.000029
0.000063
0.000047
0.000073
0.000039
0.000021
0.000031
0.000071
0.000050
0.000045
0.000034
0.000058
0.000042
0.000052
0.000026
0.000052
0.000013
0.000016
0.000026
0.000013
0.000005
0.000008
0.000016
-0.000008
-0.000011
0.000031
-0.000008
0.000058
0.000021
0.000052
0.000031
0.000066
0.000026
0.000050
0.000031
0.000092
0.000105
0.000089
0.000076
0.000060
0.000060
0.000063
0.000042
0.000071
0.000042
0.000050
0.000029
0.000045
0.000031
0.000081
0.000068
0.000110
0.000144
0.000123
0.000092
0.000060
0.000047
0.000063
0.000013
0.000016
0.000008
0.000024
0.000024
0.000037
0.000005
0.000029
0.000010
0.000021
0.000018
0.000063
0.000058
0.000045
0.000076
0.000042
0.000021
0.000047
0.000010
0.000008
0.000016
0.000016
0.000013
0.000031
0.000021
0.000092
0.000073
0.000092
0.000110
0.000110
0.000084
0.000105
0.000100
0.000092
0.000097
0.000118
0.000092
0.000113
0.000108
0.000102
0.000045
0.000071
0.000037
0.000050
0.000018
0.000050
0.000058
0.000055
0.000016
0.000039
0.000016
-0.000008
-0.000047
-0.000032
-0.000021
-0.000003
0.000008
0.000042
0.000042
-0.000000
-0.000005
0.000026
0.000031
0.000052
0.000005
0.000018
0.000016
0.000010
-0.000013
-0.000008
-0.000011
-0.000008
-0.000029
0.000052
0.000018
0.000063
0.000050
0.000089
0.000087
0.000073
0.000013
0.000042
0.000039
0.000092
0.000076
0.000097
0.000087
0.000108
0.000047
0.000084
0.000029
0.000050
0.000034
-0.000000
-0.000016
0.000008
-0.000026
0.000045
0.000034
0.000039
0.000037
0.000063
0.000047
0.000071
0.000058
0.000066
0.000052
0.000037
-0.000018
-0.000000
-0.000013
0.000005
-0.000011
0.000047
0.000042
0.000076
0.000050
0.000068
0.000055
0.000042
0.000029
0.000052
0.000050
0.000100
0.000102
0.000113
0.000102
0.000136
0.000084
0.000134
0.000126
0.000097
0.000092
0.000073
0.000081
0.000055
0.000024
0.000039
0.000024
0.000050
0.000016
0.000050
0.000063
0.000079
0.000068
0.000089
0.000071
0.000092
0.000076
0.000084
0.000081
0.000097
0.000102
0.000084
0.000071
0.000092
0.000071
0.000076
0.000071
0.000081
0.000081
0.000089
0.000079
0.000066
0.000042
0.000050
0.000037
0.000084
0.000063
0.000068
0.000071
0.000068
0.000050
0.000060
0.000073
0.000113
0.000100
0.000129
0.000126
0.000144
0.000097
0.000100
0.000050
0.000089
0.000050
0.000071
0.000050
0.000079
0.000050
0.000058
0.000031
0.000097
0.000050
0.000089
0.000100
0.000108
0.000071
0.000084
0.000102
0.000123
0.000076
0.000097
0.000063
0.000079
0.000063
0.000094
0.000045
0.000121
0.000081
0.000068
0.000081
0.000063
0.000071
0.000073
0.000094
0.000126
0.000071
0.000066
0.000087
0.000094
0.000060
0.000084
0.000066
0.000100
0.000073
0.000079
0.000089
0.000123
0.000089
0.000081
0.000071
0.000092
0.000071
0.000097
0.000105
0.000123
0.000110
0.000094
0.000094
0.000094
0.000034
0.000068
0.000050
0.000031
0.000016
0.000068
0.000105
0.000105
0.000060
0.000087
0.000034
0.000010
-0.000016
0.000010
0.000016
0.000026
-0.000008
0.000021
0.000029
0.000063
0.000039
0.000108
0.000094
0.000079
0.000063
0.000100
0.000058
0.000042
0.000026
0.000073
0.000050
0.000060
0.000071
0.000105
0.000097
0.000092
0.000055
0.000034
0.000013
-0.000005
-0.000026
0.000063
0.000026
0.000071
0.000039
0.000081
0.000034
0.000018
0.000029
0.000042
0.000016
0.000039
0.000047
0.000071
0.000068
0.000113
0.000092
0.000105
0.000110
0.000100
0.000047
0.000055
0.000055
0.000045
0.000026
0.000052
0.000005
0.000031
0.000018
0.000060
0.000024
0.000052
0.000068
0.000092
0.000050
0.000076
0.000073
0.000052
0.000003
0.000037
0.000031
0.000081
0.000047
0.000092
0.000060
0.000084
0.000010
0.000045
0.000024
0.000047
0.000037
0.000060
0.000102
0.000118
0.000115
0.000126
0.000126
0.000110
0.000071
0.000092
0.000073
0.000058
-0.000003
0.000024
0.000010
0.000055
0.000055
0.000089
0.000079
0.000113
0.000087
0.000105
0.000089
0.000089
0.000068
0.000105
0.000042
0.000039
0.000016
0.000060
0.000045
0.000034
0.000073
0.000060
0.000013
0.000045
0.000031
0.000021
0.000024
0.000039
0.000010
0.000063
0.000052
0.000060
0.000058
0.000084
0.000060
0.000076
0.000089
0.000087
0.000042
0.000060
0.000052
0.000066
0.000052
0.000055
0.000034
0.000037
-0.000011
0.000045
0.000013
0.000034
0.000039
0.000050
0.000029
0.000045
0.000031
0.000060
0.000060
0.000076
0.000045
0.000058
0.000050
0.000076
0.000058
0.000076
0.000066
0.000100
0.000058
0.000097
0.000110
0.000092
0.000052
0.000055
0.000031
0.000018
-0.000000
-0.000003
0.000013
0.000045
-0.000000
0.000063
0.000047
0.000089
0.000055
0.000087
0.000060
0.000084
0.000079
0.000094
0.000108
0.000118
0.000097
0.000102
0.000084
0.000097
0.000063
0.000105
0.000050
0.000050
0.000047
0.000071
0.000079
0.000084
0.000084
0.000105
0.000087
0.000094
0.000118
0.000126
0.000118
0.000131
0.000097
0.000102
0.000055
0.000039
0.000055
0.000063
0.000018
0.000031
0.000042
0.000018
0.000024
0.000016
0.000010
0.000050
0.000016
0.000031
0.000013
0.000016
-0.000000
0.000021
0.000024
0.000055
0.000042
0.000034
0.000034
0.000068
0.000018
0.000045
0.000045
0.000016
0.000013
0.000029
0.000047
0.000073
0.000013
0.000045
0.000039
0.000071
0.000079
0.000118
0.000142
0.000129
0.000110
0.000110
0.000087
0.000055
0.000013
0.000058
0.000052
0.000055
0.000047
0.000073
0.000039
0.000047
0.000034
0.000060
0.000031
0.000063
0.000034
0.000071
0.000092
0.000092
0.000110
0.000149
0.000097
0.000105
0.000097
0.000100
0.000060
0.000076
0.000068
0.000092
0.000052
0.000097
0.000073
0.000105
0.000073
0.000060
0.000079
0.000100
0.000063
0.000068
0.000021
0.000045
0.000037
0.000060
0.000089
0.000097
0.000081
0.000121
0.000131
0.000134
0.000121
0.000121
0.000131
0.000108
0.000066
0.000094
0.000052
0.000073
0.000005
0.000060
0.000060
0.000097
0.000066
0.000076
0.000079
0.000073
0.000084
0.000102
0.000089
0.000129
0.000100
0.000131
0.000134
0.000126
0.000131
0.000142
0.000115
0.000118
0.000076
0.000115
0.000092
0.000092
0.000050
0.000050
0.000060
0.000063
0.000052
0.000089
0.000129
0.000134
0.000121
0.000131
0.000076
0.000076
0.000066
0.000108
0.000110
0.000118
0.000089
0.000129
0.000094
0.000068
0.000039
0.000050
0.000021
0.000037
0.000010
0.000039
0.000042
0.000066
0.000055
0.000042
0.000066
0.000045
0.000060
0.000060
0.000047
0.000081
0.000042
0.000071
0.000026
0.000047
0.000016
0.000013
0.000052
0.000073
0.000071
0.000058
0.000076
0.000081
0.000052
0.000094
0.000063
0.000066
0.000087
0.000100
0.000115
0.000134
0.000108
0.000136
0.000115
0.000105
0.000102
0.000108
0.000071
0.000110
0.000105
0.000081
0.000079
0.000105
0.000089
0.000092
0.000063
0.000073
0.000050
0.000029
0.000047
0.000063
0.000055
0.000097
0.000037
0.000029
0.000029
0.000018
0.000031
0.000021
0.000005
0.000021
0.000018
0.000052
0.000024
0.000029
0.000039
0.000068
0.000055
0.000071
0.000094
0.000087
0.000052
0.000089
0.000071
0.000079
0.000089
0.000110
0.000076
0.000108
0.000073
0.000142
0.000115
0.000147
0.000131
0.000149
0.000121
0.000149
0.000131
0.000110
0.000071
0.000047
0.000042
0.000058
0.000052
0.000071
0.000071
0.000084
0.000073
0.000089
0.000089
0.000110
0.000115
0.000115
0.000087
0.000118
0.000102
0.000097
0.000094
0.000110
0.000097
0.000087
0.000058
0.000097
0.000071
0.000081
0.000029
0.000063
0.000045
0.000058
0.000039
0.000060
0.000052
0.000087
0.000108
0.000094
0.000118
0.000113
0.000076
0.000079
0.000066
0.000068
0.000034
0.000052
0.000050
0.000055
0.000089
0.000092
0.000079
0.000079
0.000079
0.000084
0.000021
0.000042
0.000026
0.000076
0.000042
0.000055
0.000058
0.000110
0.000068
0.000081
0.000100
0.000129
0.000113
0.000131
0.000076
0.000108
0.000092
0.000047
0.000084
0.000066
0.000071
0.000076
0.000058
0.000060
0.000055
0.000092
0.000060
0.000110
0.000068
0.000081
0.000089
0.000094
0.000089
0.000121
0.000110
0.000126
0.000097
0.000113
0.000108
0.000092
0.000092
0.000094
0.000063
0.000087
0.000076
0.000100
0.000087
0.000089
0.000071
0.000063
0.000039
0.000050
0.000068
0.000073
0.000060
0.000110
0.000102
0.000144
0.000134
0.000129
0.000131
0.000144
0.000129
0.000131
0.000139
0.000123
0.000126
0.000129
0.000087
0.000055
0.000037
0.000066
0.000039
0.000060
0.000055
0.000037
0.000003
0.000039
0.000021
0.000094
0.000089
0.000092
0.000097
0.000121
0.000110
0.000094
0.000050
0.000087
0.000076
0.000063
0.000055
0.000087
0.000039
0.000094
0.000066
0.000087
0.000045
0.000031
0.000052
0.000058
0.000031
0.000055
0.000047
0.000102
0.000087
0.000097
0.000087
0.000118
0.000115
0.000100
0.000118
0.000147
0.000110
0.000102
0.000071
0.000092
0.000045
0.000079
0.000068
0.000092
0.000094
0.000118
0.000097
0.000087
0.000087
0.000063
0.000073
0.000060
0.000031
0.000071
0.000068
0.000097
0.000071
0.000089
0.000094
0.000097
0.000105
0.000092
0.000108
0.000108
0.000084
0.000102
0.000100
0.000110
0.000081
0.000113
0.000084
0.000115
0.000113
0.000110
0.000134
0.000149
0.000110
0.000152
0.000139
0.000131
0.000131
0.000147
0.000134
0.000147
0.000073
0.000100
0.000060
0.000029
0.000034
0.000073
0.000060
0.000055
0.000045
0.000042
0.000018
0.000079
0.000068
0.000113
0.000087
0.000071
0.000073
0.000052
0.000058
0.000058
0.000066
0.000094
0.000071
0.000079
0.000087
0.000100
0.000071
0.000089
0.000097
0.000102
0.000089
0.000118
0.000100
0.000142
0.000092
0.000129
0.000110
0.000144
0.000134
0.000129
0.000115
0.000134
0.000071
0.000087
0.000097
0.000097
0.000066
0.000084
0.000084
0.000079
0.000079
0.000097
0.000076
0.000068
0.000073
0.000100
0.000081
0.000105
0.000066
0.000089
0.000068
0.000113
0.000110
0.000121
0.000121
0.000129
0.000123
0.000113
0.000089
0.000071
0.000045
0.000063
0.000060
0.000039
-0.000021
-0.000013
0.000005
0.000024
0.000026
0.000068
0.000073
0.000063
0.000084
0.000081
0.000087
0.000123
0.000087
0.000136
0.000157
0.000147
0.000121
0.000123
0.000081
0.000087
0.000081
0.000115
0.000087
0.000094
0.000058
0.000097
0.000066
0.000087
0.000094
0.000089
0.000108
0.000097
0.000079
0.000097
0.000089
0.000050
0.000087
0.000108
0.000081
0.000108
0.000092
0.000110
0.000092
0.000121
0.000097
0.000113
0.000089
0.000094
0.000092
0.000055
0.000039
0.000034
0.000003
0.000050
0.000042
0.000063
0.000084
0.000076
0.000039
0.000076
0.000039
0.000084
0.000071
0.000084
0.000110
0.000129
0.000097
0.000126
0.000102
0.000087
0.000052
0.000081
0.000037
0.000060
0.000060
0.000100
0.000071
0.000097
0.000076
0.000097
0.000087
0.000108
0.000084
0.000113
0.000113
0.000102
0.000129
0.000134
0.000089
0.000097
0.000108
0.000118
0.000094
0.000126
0.000066
0.000047
0.000016
0.000037
0.000034
0.000005
0.000005
0.000021
0.000031
0.000055
0.000045
0.000102
0.000092
0.000113
0.000113
0.000136
0.000068
0.000113
0.000092
0.000089
0.000094
0.000092
0.000094
0.000084
0.000055
0.000092
0.000068
0.000068
0.000047
0.000068
0.000058
0.000066
0.000076
0.000094
0.000076
0.000084
0.000092
0.000115
0.000105
0.000100
0.000123
0.000123
0.000081
0.000087
0.000089
0.000071
0.000047
0.000105
0.000071
0.000052
0.000050
0.000076
0.000034
0.000058
0.000045
0.000102
0.000071
0.000100
0.000094
0.000136
0.000113
0.000118
0.000087
0.000092
0.000052
0.000042
0.000076
0.000073
0.000079
0.000084
0.000079
0.000123
0.000084
0.000092
0.000060
0.000092
0.000060
0.000087
0.000071
0.000108
0.000100
0.000102
0.000097
0.000100
0.000084
0.000115
0.000092
0.000131
0.000118
0.000126
0.000108
0.000115
0.000110
0.000076
0.000058
0.000050
-0.000000
0.000008
0.000021
0.000037
0.000003
0.000018
0.000037
0.000089
0.000100
0.000110
0.000063
0.000094
0.000050
0.000060
0.000066
0.000087
0.000073
0.000110
0.000081
0.000118
0.000094
0.000097
0.000105
0.000108
0.000092
0.000118
0.000084
0.000100
0.000089
0.000149
0.000108
0.000126
0.000131
0.000160
0.000186
0.000194
0.000165
0.000202
0.000142
0.000115
0.000123
0.000121
0.000087
0.000118
0.000094
0.000097
0.000068
0.000050
0.000073
0.000113
0.000068
0.000092
0.000076
0.000115
0.000110
0.000105
0.000110
0.000152
0.000123
0.000123
0.000123
0.000134
0.000126
0.000157
0.000144
0.000170
0.000136
0.000155
0.000144
0.000136
0.000100
0.000092
0.000115
0.000121
0.000071
0.000108
0.000118
0.000147
0.000123
0.000129
0.000126
0.000168
0.000105
0.000152
0.000136
0.000139
0.000113
0.000129
0.000149
0.000113
0.000105
0.000121
0.000102
0.000113
0.000087
0.000102
0.000108
0.000115
0.000115
0.000118
0.000115
0.000100
0.000079
0.000134
0.000123
0.000134
0.000134
0.000173
0.000181
0.000173
0.000129
0.000134
0.000123
0.000100
0.000081
0.000076
0.000050
0.000084
0.000071
0.000084
0.000076
0.000092
0.000100
0.000123
0.000105
0.000110
0.000076
0.000115
0.000100
0.000110
0.000068
0.000108
0.000092
0.000084
0.000100
0.000118
0.000087
0.000115
0.000115
0.000108
0.000097
0.000110
0.000100
0.000087
0.000060
0.000081
0.000079
0.000089
0.000113
0.000115
0.000108
0.000129
0.000102
0.000118
0.000084
0.000134
0.000079
0.000079
0.000092
0.000081
0.000068
0.000118
0.000097
0.000123
0.000092
0.000110
0.000066
0.000076
0.000079
0.000113
0.000087
0.000131
0.000131
0.000144
0.000134
0.000149
0.000129
0.000097
0.000087
0.000079
0.000073
0.000089
0.000052
0.000066
0.000021
0.000050
0.000029
0.000042
0.000047
0.000084
0.000063
0.000081
0.000089
0.000100
0.000068
0.000102
0.000102
0.000142
0.000131
0.000115
0.000113
0.000123
0.000108
0.000144
0.000105
0.000131
0.000123
0.000136
0.000139
0.000147
0.000108
0.000134
0.000123
0.000110
0.000071
0.000068
0.000047
0.000060
0.000042
0.000042
0.000052
0.000105
0.000076
0.000113
0.000126
0.000121
0.000097
0.000105
0.000092
0.000068
0.000047
0.000068
0.000084
0.000081
0.000084
0.000123
0.000076
0.000097
0.000097
0.000073
0.000100
0.000142
0.000105
0.000094
0.000068
0.000089
0.000063
0.000105
0.000089
0.000081
0.000060
0.000087
0.000081
0.000076
0.000087
0.000092
0.000063
0.000097
0.000079
0.000071
0.000087
0.000102
0.000081
0.000094
0.000094
0.000126
0.000087
0.000131
0.000100
0.000129
0.000100
0.000134
0.000121
0.000123
0.000097
0.000134
0.000081
0.000115
0.000113
0.000105
0.000105
0.000126
0.000084
0.000087
0.000073
0.000108
0.000071
0.000100
0.000110
0.000092
0.000068
0.000102
0.000102
0.000100
0.000087
0.000076
0.000076
0.000055
0.000066
0.000076
0.000047
0.000110
0.000092
0.000129
0.000089
0.000115
0.000108
0.000113
0.000115
0.000105
0.000063
0.000110
0.000084
0.000094
0.000055
0.000118
0.000073
0.000081
0.000102
0.000152
0.000142
0.000157
0.000087
0.000073
0.000063
0.000073
0.000005
0.000068
0.000047
0.000060
0.000042
0.000058
0.000031
0.000039
0.000042
0.000094
0.000084
0.000110
0.000113
0.000147
0.000123
0.000147
0.000115
0.000134
0.000102
0.000136
0.000131
0.000144
0.000118
0.000089
0.000081
0.000087
0.000084
0.000071
0.000079
0.000105
0.000105
0.000121
0.000115
0.000152
0.000136
0.000155
0.000121
0.000149
0.000105
0.000155
0.000155
0.000136
0.000129
0.000108
0.000094
0.000113
0.000076
0.000113
0.000100
0.000105
0.000092
0.000108
0.000066
0.000108
0.000073
0.000087
0.000089
0.000100
0.000102
0.000118
0.000115
0.000144
0.000136
0.000155
0.000115
0.000147
0.000105
0.000115
0.000100
0.000129
0.000108
0.000142
0.000108
0.000144
0.000105
0.000118
0.000110
0.000115
0.000097
0.000136
0.000126
0.000134
0.000129
0.000144
0.000131
0.000147
0.000147
0.000168
0.000126
0.000160
0.000115
0.000163
0.000139
0.000149
0.000147
0.000136
0.000102
0.000087
0.000076
0.000071
0.000068
0.000092
0.000108
0.000105
0.000105
0.000110
0.000081
0.000102
0.000092
0.000139
0.000118
0.000147
0.000123
0.000157
0.000155
0.000136
0.000087
0.000108
0.000100
0.000115
0.000066
0.000068
0.000068
0.000081
0.000063
0.000087
0.000084
0.000097
0.000076
0.000115
0.000123
0.000129
0.000129
0.000205
0.000139
0.000142
0.000129
0.000155
0.000118
0.000149
0.000108
0.000136
0.000126
0.000123
0.000121
0.000115
0.000123
0.000126
0.000089
0.000102
0.000097
0.000089
0.000084
0.000121
0.000121
0.000121
0.000121
0.000123
0.000102
0.000136
0.000129
0.000126
0.000115
0.000123
0.000097
0.000126
0.000113
0.000123
0.000108
0.000092
0.000089
0.000134
0.000100
0.000105
0.000076
0.000068
0.000081
0.000100
0.000115
0.000165
0.000142
0.000155
0.000155
0.000149
0.000160
0.000149
0.000102
0.000108
0.000073
0.000071
0.000087
0.000084
0.000021
0.000060
0.000042
0.000087
0.000102
0.000108
0.000097
0.000110
0.000115
0.000139
0.000136
0.000173
0.000149
0.000184
0.000163
0.000173
0.000191
0.000189
0.000152
0.000165
0.000126
0.000131
0.000118
0.000100
0.000071
0.000092
0.000084
0.000084
0.000058
0.000058
0.000052
0.000073
0.000063
0.000089
0.000092
0.000134
0.000163
0.000147
0.000134
0.000168
0.000144
0.000168
0.000155
0.000131
0.000147
0.000094
0.000105
0.000102
0.000063
0.000092
0.000094
0.000118
0.000047
0.000087
0.000076
0.000118
0.000094
0.000113
0.000144
0.000163
0.000123
0.000155
0.000157
0.000178
0.000136
0.000168
0.000139
0.000168
0.000121
0.000126
0.000110
0.000134
0.000102
0.000084
0.000089
0.000115
0.000121
0.000142
0.000152
0.000144
0.000108
0.000155
0.000142
0.000134
0.000139
0.000160
0.000134
0.000118
0.000097
0.000115
0.000081
0.000076
0.000050
0.000060
0.000029
0.000087
0.000066
0.000073
0.000087
0.000097
0.000108
0.000134
0.000110
0.000142
0.000149
0.000173
0.000144
0.000136
0.000155
0.000131
0.000105
0.000097
0.000050
0.000081
0.000045
0.000081
0.000071
0.000108
0.000105
0.000147
0.000110
0.000155
0.000134
0.000136
0.000113
0.000155
0.000118
0.000123
0.000042
0.000092
0.000108
0.000092
0.000084
0.000094
0.000076
0.000108
0.000121
0.000139
0.000097
0.000155
0.000079
0.000131
0.000110
0.000102
0.000131
0.000134
0.000108
0.000144
0.000118
0.000160
0.000126
0.000160
0.000115
0.000144
0.000113
0.000123
0.000129
0.000113
0.000102
0.000100
0.000063
0.000084
0.000058
0.000039
0.000047
0.000045
0.000039
0.000094
0.000097
0.000131
0.000136
0.000155
0.000155
0.000184
0.000155
0.000176
0.000152
0.000165
0.000129
0.000155
0.000121
0.000155
0.000118
0.000089
0.000105
0.000121
0.000084
0.000097
0.000081
0.000089
0.000063
0.000094
0.000073
0.000100
0.000123
0.000136
0.000142
0.000160
0.000168
0.000160
0.000123
0.000142
0.000092
0.000089
0.000089
0.000073
0.000047
0.000008
0.000029
0.000008
0.000008
0.000060
0.000050
0.000079
0.000079
0.000097
0.000118
0.000121
0.000136
0.000165
0.000115
0.000136
0.000113
0.000149
0.000144
0.000126
0.000142
0.000134
0.000097
0.000097
0.000092
0.000113
0.000084
0.000089
0.000079
0.000097
0.000068
0.000105
0.000113
0.000134
0.000115
0.000144
0.000136
0.000173
0.000173
0.000173
0.000173
0.000173
0.000149
0.000142
0.000115
0.000110
0.000068
0.000071
0.000047
0.000047
0.000029
0.000052
0.000063
0.000076
0.000045
0.000089
0.000076
0.000105
0.000110
0.000170
0.000165
0.000163
0.000157
0.000165
0.000136
0.000178
0.000121
0.000131
0.000126
0.000123
0.000113
0.000115
0.000105
0.000060
0.000071
0.000076
0.000039
0.000066
0.000047
0.000071
0.000052
0.000068
0.000113
0.000144
0.000147
0.000170
0.000176
0.000186
0.000129
0.000170
0.000123
0.000079
0.000084
0.000039
0.000016
0.000055
0.000026
0.000071
0.000102
0.000092
0.000092
0.000134
0.000134
0.000136
0.000131
0.000157
0.000121
0.000129
0.000110
0.000131
0.000097
0.000094
0.000039
0.000039
0.000037
0.000037
0.000024
0.000042
0.000066
0.000089
0.000058
0.000089
0.000076
0.000102
0.000079
0.000115
0.000094
0.000126
0.000123
0.000157
0.000147
0.000173
0.000163
0.000136
0.000123
0.000115
0.000118
0.000129
0.000079
0.000084
0.000047
0.000052
0.000066
0.000089
0.000066
0.000113
0.000066
0.000084
0.000081
0.000100
0.000108
0.000100
0.000094
0.000123
0.000089
0.000108
0.000097
0.000108
0.000100
0.000097
0.000060
0.000089
0.000031
0.000050
0.000037
0.000063
0.000058
0.000060
0.000068
0.000102
0.000097
0.000155
0.000129
0.000144
0.000149
0.000139
0.000149
0.000139
0.000142
0.000147
0.000121
0.000165
0.000118
0.000115
0.000118
0.000113
0.000089
0.000092
0.000100
0.000087
0.000068
0.000084
0.000089
0.000147
0.000129
0.000123
0.000134
0.000134
0.000136
0.000139
0.000118
0.000157
0.000136
0.000144
0.000118
0.000147
0.000100
0.000092
0.000094
0.000092
0.000084
0.000105
0.000081
0.000097
0.000068
0.000092
0.000094
0.000110
0.000115
0.000142
0.000131
0.000163
0.000155
0.000186
0.000186
0.000186
0.000144
0.000134
0.000076
0.000081
0.000058
0.000076
0.000084
0.000084
0.000047
0.000071
0.000066
0.000094
0.000050
0.000087
0.000079
0.000089
0.000058
0.000092
0.000105
0.000105
0.000113
0.000126
0.000142
0.000173
0.000157
0.000189
0.000178
0.000152
0.000136
0.000123
0.000089
0.000087
0.000060
0.000094
0.000081
0.000081
0.000100
0.000115
0.000105
0.000126
0.000113
0.000144
0.000134
0.000149
0.000102
0.000129
0.000105
0.000123
0.000139
0.000173
0.000139
0.000113
0.000089
0.000108
0.000079
0.000113
0.000092
0.000110
0.000068
0.000102
0.000115
0.000126
0.000097
0.000123
0.000118
0.000149
0.000136
0.000152
0.000170
0.000157
0.000142
0.000181
0.000139
0.000168
0.000129
0.000123
0.000134
0.000110
0.000060
0.000087
0.000066
0.000092
0.000079
0.000110
0.000113
0.000102
0.000100
0.000168
0.000144
0.000155
0.000155
0.000170
0.000163
0.000168
0.000149
0.000168
0.000149
0.000126
0.000089
0.000110
0.000084
0.000081
0.000055
0.000081
0.000092
0.000100
0.000087
0.000134
0.000102
0.000118
0.000123
0.000131
0.000121
0.000149
0.000100
0.000139
0.000129
0.000126
0.000134
0.000105
0.000110
0.000102
0.000097
0.000134
0.000126
0.000115
0.000134
0.000105
0.000118
0.000097
0.000105
0.000097
0.000068
0.000108
0.000087
0.000100
0.000076
0.000105
0.000097
0.000113
0.000105
0.000123
0.000129
0.000136
0.000142
0.000147
0.000129
0.000136
0.000105
0.000121
0.000108
0.000115
0.000079
0.000084
0.000073
0.000087
0.000113
0.000134
0.000149
0.000144
0.000134
0.000170
0.000157
0.000176
0.000163
0.000165
0.000113
0.000134
0.000079
0.000092
0.000097
0.000097
0.000068
0.000102
0.000089
0.000118
0.000113
0.000139
0.000126
0.000144
0.000123
0.000176
0.000123
0.000102
0.000121
0.000126
0.000097
0.000134
0.000129
0.000144
0.000149
0.000152
0.000134
0.000163
0.000129
0.000121
0.000076
0.000102
0.000100
0.000115
0.000092
0.000134
0.000134
0.000121
0.000155
0.000147
0.000131
0.000170
0.000149
0.000170
0.000152
0.000160
0.000157
0.000165
0.000147
0.000121
0.000087
0.000113
0.000063
0.000102
0.000071
0.000089
0.000066
0.000097
0.000097
0.000102
0.000097
0.000155
0.000131
0.000136
0.000136
0.000163
0.000155
0.000144
0.000134
0.000118
0.000129
0.000136
0.000121
0.000136
0.000129
0.000108
0.000110
0.000139
0.000097
0.000134
0.000097
0.000155
0.000100
0.000097
0.000115
0.000129
0.000131
0.000147
0.000149
0.000210
0.000197
0.000165
0.000149
0.000168
0.000115
0.000126
0.000100
0.000105
0.000076
0.000081
0.000050
0.000087
0.000058
0.000097
0.000039
0.000066
0.000063
0.000084
0.000097
0.000108
0.000121
0.000155
0.000165
0.000186
0.000165
0.000170
0.000168
0.000147
0.000121
0.000100
0.000094
0.000126
0.000060
0.000108
0.000084
0.000123
0.000108
0.000110
0.000131
0.000136
0.000129
0.000157
0.000165
0.000160
0.000163
0.000170
0.000152
0.000155
0.000165
0.000186
0.000163
0.000157
0.000123
0.000126
0.000129
0.000121
0.000100
0.000105
0.000076
0.000108
0.000063
0.000105
0.000089
0.000134
0.000110
0.000108
0.000100
0.000139
0.000134
0.000152
0.000139
0.000149
0.000118
0.000092
0.000110
0.000115
0.000084
0.000113
0.000094
0.000081
0.000079
0.000089
0.000123
0.000129
0.000097
0.000142
0.000110
0.000113
0.000113
0.000134
0.000134
0.000163
0.000136
0.000157
0.000147
0.000152
0.000115
0.000149
0.000123
0.000155
0.000105
0.000097
0.000076
0.000068
0.000021
0.000058
0.000068
0.000097
0.000060
0.000123
0.000123
0.000131
0.000121
0.000160
0.000173
0.000191
0.000173
0.000186
0.000144
0.000184
0.000126
0.000126
0.000134
0.000123
0.000076
0.000102
0.000092
0.000105
0.000073
0.000100
0.000066
0.000079
0.000102
0.000110
0.000094
0.000129
0.000089
0.000144
0.000134
0.000139
0.000134
0.000155
0.000139
0.000134
0.000105
0.000097
0.000094
0.000092
0.000089
0.000144
0.000089
0.000123
0.000081
0.000118
0.000115
0.000100
0.000102
0.000149
0.000136
0.000131
0.000157
0.000170
0.000118
0.000165
0.000152
0.000163
0.000155
0.000149
0.000121
0.000129
0.000108
0.000113
0.000113
0.000102
0.000097
0.000079
0.000045
0.000081
0.000073
0.000068
0.000105
0.000113
0.000110
0.000131
0.000126
0.000144
0.000123
0.000147
0.000131
0.000134
0.000105
0.000110
0.000089
0.000094
0.000071
0.000063
0.000050
0.000089
0.000052
0.000092
0.000071
0.000115
0.000102
0.000129
0.000113
0.000170
0.000131
0.000168
0.000165
0.000160
0.000131
0.000170
0.000142
0.000113
0.000097
t0(sec) = 0.000000E+0
dt(sec) = 4.000000E-10
F2:INSP "
DESCRIPTOR_NAME    : WAVEDESC           
TEMPLATE_NAME      : LECROY_2_3         
COMM_TYPE          : word               
COMM_ORDER         : HIFIRST            
WAVE_DESCRIPTOR    : 346                
USER_TEXT          : 0                  
RES_DESC1          : 0                  
TRIGTIME_ARRAY     : 0                  
RIS_TIME_ARRAY     : 0                  
RES_ARRAY1         : 0                  
WAVE_ARRAY_1       : 10002              
WAVE_ARRAY_2       : 0                  
RES_ARRAY2         : 0                  
RES_ARRAY3         : 0                  
INSTRUMENT_NAME    : LECROYHDO6104      
INSTRUMENT_NUMBER  : 6308               
TRACE_LABEL        :                    
RESERVED1          : 5001               
RESERVED2          : 0                  
WAVE_ARRAY_COUNT   : 5001               
PNTS_PER_SCREEN    : 5000               
FIRST_VALID_PNT    : 0                  
LAST_VALID_PNT     : 5000               
FIRST_POINT        : 0                  
SPARSING_FACTOR    : 1                  
SEGMENT_INDEX      : 0                  
SUBARRAY_COUNT     : 1                  
SWEEPS_PER_ACQ     : 200                
POINTS_PER_PAIR    : 0                  
PAIR_OFFSET        : 0                  
VERTICAL_GAIN      : 2.6238e-006        
VERTICAL_OFFSET    : 4.2500e-002        
MAX_VALUE          : 3.2512e+004        
MIN_VALUE          : -2.5373e+004       
NOMINAL_BITS       : 16                 
NOM_SUBARRAY_COUNT : 1                  
HORIZ_INTERVAL     : 4.0000e-010        
HORIZ_OFFSET       : -2.00000000e-007   
PIXEL_OFFSET       : -2.00000000e-007   
VERTUNIT           : Unit Name = V
HORUNIT            : Unit Name = S
HORIZ_UNCERTAINTY  : 1.0000e-012        
TRIGGER_TIME       : Date = APR 17, 2024, Time = 19:33:32.853298883
ACQ_DURATION       : 1.0049e+001        
RECORD_TYPE        : single_sweep       
PROCESSING_DONE    : no_processing      
RESERVED5          : 0                  
RIS_SWEEPS         : 1                  
TIMEBASE           : 200_ns/div         
VERT_COUPLING      : DC_50_Ohms         
PROBE_ATT          : 1.0000e+000        
FIXED_VERT_GAIN    : 20_mV/div          
BANDWIDTH_LIMIT    : off                
VERTICAL_VERNIER   : 1.0500e+000        
ACQ_VERT_OFFSET    : 0.0000e+000        
WAVE_SOURCE        : UNKNOWN            
"
0.001351
0.001375
0.001359
0.001364
0.001375
0.001375
0.001372
0.001356
0.001383
0.001372
0.001367
0.001393
0.001362
0.001375
0.001391
0.001367
0.001370
0.001364
0.001343
0.001356
0.001356
0.001359
0.001377
0.001377
0.001393
0.001367
0.001383
0.001380
0.001406
0.001364
0.001383
0.001393
0.001356
0.001375
0.001362
0.001364
0.001362
0.001359
0.001385
0.001385
0.001380
0.001370
0.001356
0.001396
0.001377
0.001404
0.001404
0.001380
0.001391
0.001377
0.001377
0.001396
0.001398
0.001375
0.001377
0.001383
0.001364
0.001364
0.001367
0.001356
0.001362
0.001388
0.001359
0.001391
0.001356
0.001364
0.001364
0.001396
0.001398
0.001385
0.001406
0.001364
0.001370
0.001398
0.001396
0.001393
0.001391
0.001385
0.001383
0.001383
0.001367
0.001385
0.001370
0.001356
0.001362
0.001317
0.001362
0.001349
0.001372
0.001364
0.001388
0.001385
0.001383
0.001380
0.001396
0.001385
0.001351
0.001377
0.001398
0.001383
0.001375
0.001370
0.001372
0.001354
0.001359
0.001362
0.001377
0.001377
0.001362
0.001354
0.001396
0.001391
0.001364
0.001383
0.001406
0.001354
0.001364
0.001364
0.001380
0.001385
0.001364
0.001370
0.001380
0.001375
0.001351
0.001351
0.001362
0.001351
0.001367
0.001349
0.001333
0.001383
0.001359
0.001375
0.001398
0.001409
0.001385
0.001406
0.001388
0.001364
0.001380
0.001367
0.001383
0.001375
0.001354
0.001322
0.001312
0.001335
0.001359
0.001335
0.001383
0.001380
0.001370
0.001372
0.001393
0.001396
0.001393
0.001383
0.001383
0.001383
0.001401
0.001396
0.001383
0.001375
0.001375
0.001356
0.001370
0.001385
0.001346
0.001333
0.001335
0.001335
0.001367
0.001354
0.001367
0.001359
0.001375
0.001364
0.001383
0.001359
0.001391
0.001398
0.001375
0.001406
0.001380
0.001338
0.001343
0.001346
0.001356
0.001375
0.001377
0.001385
0.001393
0.001380
0.001401
0.001367
0.001354
0.001391
0.001391
0.001391
0.001383
0.001377
0.001391
0.001398
0.001385
0.001383
0.001380
0.001375
0.001404
0.001385
0.001367
0.001372
0.001367
0.001364
0.001377
0.001380
0.001338
0.001341
0.001364
0.001359
0.001398
0.001341
0.001356
0.001398
0.001393
0.001385
0.001385
0.001385
0.001367
0.001398
0.001354
0.001364
0.001391
0.001354
0.001377
0.001356
0.001359
0.001380
0.001375
0.001375
0.001401
0.001383
0.001380
0.001398
0.001385
0.001356
0.001388
0.001364
0.001385
0.001398
0.001375
0.001393
0.001398
0.001367
0.001417
0.001406
0.001391
0.001388
0.001380
0.001356
0.001375
0.001375
0.001377
0.001359
0.001377
0.001370
0.001364
0.001362
0.001372
0.001364
0.001383
0.001396
0.001401
0.001354
0.001391
0.001412
0.001401
0.001349
0.001377
0.001349
0.001354
0.001372
0.001380
0.001354
0.001356
0.001372
0.001362
0.001341
0.001388
0.001364
0.001364
0.001367
0.001370
0.001370
0.001354
0.001375
0.001351
0.001388
0.001377
0.001362
0.001380
0.001372
0.001375
0.001380
0.001393
0.001383
0.001370
0.001359
0.001359
0.001367
0.001383
0.001367
0.001377
0.001380
0.001385
0.001385
0.001393
0.001391
0.001375
0.001391
0.001417
0.001377
0.001370
0.001362
0.001362
0.001354
0.001359
0.001375
0.001377
0.001372
0.001375
0.001396
0.001356
0.001349
0.001370
0.001383
0.001380
0.001385
0.001398
0.001380
0.001388
0.001383
0.001385
0.001393
0.001367
0.001367
0.001383
0.001370
0.001380
0.001359
0.001367
0.001391
0.001375
0.001359
0.001396
0.001362
0.001370
0.001380
0.001388
0.001370
0.001380
0.001396
0.001404
0.001385
0.001383
0.001377
0.001391
0.001377
0.001401
0.001380
0.001362
0.001375
0.001380
0.001364
0.001398
0.001380
0.001364
0.001383
0.001377
0.001375
0.001341
0.001380
0.001370
0.001396
0.001398
0.001377
0.001364
0.001320
0.001346
0.001377
0.001380
0.001351
0.001370
0.001356
0.001391
0.001364
0.001362
0.001383
0.001356
0.001356
0.001385
0.001359
0.001412
0.001356
0.001380
0.001367
0.001370
0.001370
0.001375
0.001364
0.001380
0.001383
0.001375
0.001396
0.001367
0.001383
0.001356
0.001333
0.001370
0.001322
0.001364
0.001372
0.001377
0.001377
0.001398
0.001354
0.001364
0.001380
0.001367
0.001391
0.001398
0.001398
0.001370
0.001372
0.001356
0.001338
0.001359
0.001362
0.001367
0.001359
0.001364
0.001333
0.001335
0.001330
0.001320
0.001404
0.001388
0.001409
0.001414
0.001370
0.001362
0.001351
0.001375
0.001391
0.001391
0.001362
0.001377
0.001380
0.001367
0.001370
0.001391
0.001364
0.001356
0.001372
0.001372
0.001367
0.001372
0.001412
0.001414
0.001422
0.001422
0.001414
0.001383
0.001370
0.001372
0.001320
0.001314
0.001291
0.001320
0.001335
0.001349
0.001372
0.001396
0.001417
0.001422
0.001391
0.001412
0.001388
0.001391
0.001385
0.001393
0.001356
0.001372
0.001356
0.001406
0.001383
0.001401
0.001401
0.001398
0.001396
0.001343
0.001349
0.001367
0.001359
0.001364
0.001354
0.001322
0.001349
0.001356
0.001396
0.001433
0.001443
0.001448
0.001375
0.001375
0.001328
0.001330
0.001364
0.001385
0.001414
0.001404
0.001391
0.001406
0.001422
0.001430
0.001427
0.001396
0.001370
0.001320
0.001301
0.001283
0.001317
0.001367
0.001370
0.001427
0.001398
0.001414
0.001398
0.001414
0.001396
0.001380
0.001398
0.001335
0.001322
0.001312
0.001299
0.001312
0.001388
0.001412
0.001417
0.001438
0.001401
0.001438
0.001385
0.001354
0.001335
0.001301
0.001312
0.001254
0.001217
0.001202
0.001157
0.001005
0.000716
0.000241
-0.000546
-0.001556
-0.002650
-0.003883
-0.005282
-0.006696
-0.007974
-0.009086
-0.009963
-0.010763
-0.011597
-0.012180
-0.012615
-0.012920
-0.013085
-0.013048
-0.013114
-0.013337
-0.013355
-0.013030
-0.012628
-0.012510
-0.012592
-0.012510
-0.012321
-0.012083
-0.011676
-0.011175
-0.010905
-0.010763
-0.010199
-0.009543
-0.009354
-0.009477
-0.009443
-0.009241
-0.008926
-0.008687
-0.008611
-0.008475
-0.008199
-0.007953
-0.007746
-0.007748
-0.007877
-0.007898
-0.007735
-0.007402
-0.007014
-0.006806
-0.006583
-0.006276
-0.006061
-0.005988
-0.006009
-0.006148
-0.006255
-0.006022
-0.005825
-0.005641
-0.005479
-0.005434
-0.005447
-0.005408
-0.005347
-0.005392
-0.005513
-0.005397
-0.005206
-0.004917
-0.004547
-0.004169
-0.004098
-0.004172
-0.004035
-0.003841
-0.003865
-0.003812
-0.003663
-0.003521
-0.003529
-0.003500
-0.003482
-0.003490
-0.003484
-0.003385
-0.003269
-0.003411
-0.003708
-0.003786
-0.003833
-0.004012
-0.004075
-0.003941
-0.003865
-0.003883
-0.003702
-0.003521
-0.003524
-0.003498
-0.003377
-0.003230
-0.003196
-0.003130
-0.003007
-0.002926
-0.002897
-0.002975
-0.003230
-0.003492
-0.003537
-0.003427
-0.003275
-0.003130
-0.003067
-0.002892
-0.002705
-0.002697
-0.002915
-0.003044
-0.002915
-0.002627
-0.002485
-0.002435
-0.002508
-0.002585
-0.002527
-0.002498
-0.002469
-0.002301
-0.002194
-0.002204
-0.002175
-0.002028
-0.001929
-0.001968
-0.002015
-0.002049
-0.002117
-0.002220
-0.002162
-0.001965
-0.001837
-0.001894
-0.001981
-0.001944
-0.001889
-0.001792
-0.001525
-0.001354
-0.001430
-0.001556
-0.001782
-0.001989
-0.002076
-0.002110
-0.002128
-0.002138
-0.002089
-0.001986
-0.001902
-0.001779
-0.001674
-0.001669
-0.001648
-0.001640
-0.001748
-0.001834
-0.001910
-0.001926
-0.001766
-0.001553
-0.001485
-0.001546
-0.001658
-0.001740
-0.001871
-0.001852
-0.001603
-0.001351
-0.001309
-0.001267
-0.001291
-0.001393
-0.001422
-0.001341
-0.001396
-0.001490
-0.001483
-0.001438
-0.001359
-0.001414
-0.001472
-0.001454
-0.001522
-0.001490
-0.001420
-0.001372
-0.001349
-0.001333
-0.001286
-0.001168
-0.001155
-0.001155
-0.001186
-0.001131
-0.001042
-0.001039
-0.001057
-0.001039
-0.001126
-0.001197
-0.001241
-0.001178
-0.001176
-0.001176
-0.001071
-0.000968
-0.000869
-0.000866
-0.000908
-0.000945
-0.000958
-0.000995
-0.000976
-0.000882
-0.000900
-0.000989
-0.000916
-0.000806
-0.000750
-0.000777
-0.000840
-0.000866
-0.000832
-0.000643
-0.000520
-0.000525
-0.000567
-0.000648
-0.000861
-0.001036
-0.001039
-0.001034
-0.001010
-0.000942
-0.000882
-0.000766
-0.000669
-0.000551
-0.000604
-0.000672
-0.000732
-0.000829
-0.000942
-0.000834
-0.000795
-0.000911
-0.001076
-0.001039
-0.000945
-0.000855
-0.000745
-0.000743
-0.000840
-0.000932
-0.000837
-0.000834
-0.000882
-0.000926
-0.000876
-0.000677
-0.000525
-0.000438
-0.000459
-0.000509
-0.000509
-0.000496
-0.000606
-0.000611
-0.000499
-0.000415
-0.000499
-0.000611
-0.000596
-0.000664
-0.000753
-0.000667
-0.000575
-0.000543
-0.000512
-0.000436
-0.000404
-0.000493
-0.000533
-0.000404
-0.000367
-0.000491
-0.000635
-0.000711
-0.000758
-0.000716
-0.000803
-0.000903
-0.000792
-0.000611
-0.000596
-0.000546
-0.000438
-0.000475
-0.000630
-0.000722
-0.000706
-0.000701
-0.000632
-0.000475
-0.000441
-0.000409
-0.000383
-0.000415
-0.000661
-0.000863
-0.000753
-0.000588
-0.000583
-0.000538
-0.000357
-0.000281
-0.000299
-0.000360
-0.000341
-0.000304
-0.000331
-0.000312
-0.000218
-0.000137
-0.000192
-0.000249
-0.000226
-0.000241
-0.000257
-0.000202
-0.000181
-0.000289
-0.000417
-0.000341
-0.000318
-0.000391
-0.000417
-0.000336
-0.000318
-0.000320
-0.000302
-0.000262
-0.000236
-0.000257
-0.000276
-0.000283
-0.000349
-0.000299
-0.000273
-0.000331
-0.000297
-0.000239
-0.000192
-0.000100
-0.000071
-0.000144
-0.000255
-0.000302
-0.000262
-0.000247
-0.000228
-0.000116
0.000005
-0.000013
-0.000026
0.000003
-0.000021
-0.000100
-0.000139
-0.000055
0.000010
0.000071
0.000079
0.000121
0.000060
-0.000121
-0.000270
-0.000362
-0.000449
-0.000530
-0.000517
-0.000412
-0.000399
-0.000362
-0.000252
-0.000116
-0.000105
-0.000045
0.000066
0.000134
0.000142
0.000181
0.000184
-0.000042
-0.000412
-0.000596
-0.000583
-0.000522
-0.000412
-0.000294
-0.000220
-0.000134
-0.000142
-0.000144
-0.000189
-0.000113
-0.000005
0.000115
0.000134
0.000010
-0.000084
-0.000139
-0.000244
-0.000310
-0.000262
-0.000076
0.000068
0.000186
0.000163
0.000073
-0.000045
-0.000081
-0.000026
-0.000039
-0.000165
-0.000144
-0.000108
-0.000092
-0.000131
-0.000105
-0.000123
-0.000168
-0.000210
-0.000163
-0.000165
-0.000244
-0.000278
-0.000215
-0.000165
-0.000152
-0.000037
0.000094
0.000047
0.000024
0.000066
0.000139
0.000115
0.000118
0.000178
0.000147
0.000102
0.000152
0.000163
0.000218
0.000315
0.000302
0.000181
0.000107
0.000128
0.000055
-0.000105
-0.000134
-0.000152
-0.000168
-0.000202
-0.000142
-0.000131
-0.000105
-0.000003
0.000008
-0.000066
-0.000186
-0.000286
-0.000268
-0.000207
-0.000144
0.000003
0.000110
0.000144
0.000197
0.000304
0.000380
0.000396
0.000420
0.000393
0.000357
0.000291
0.000199
0.000202
0.000178
0.000110
0.000052
0.000016
-0.000026
-0.000087
0.000084
0.000252
0.000265
0.000289
0.000352
0.000310
0.000299
0.000315
0.000302
0.000139
0.000039
0.000102
0.000207
0.000218
0.000207
0.000247
0.000262
0.000170
0.000016
0.000086
0.000181
0.000260
0.000331
0.000262
0.000157
0.000016
-0.000008
-0.000005
-0.000042
-0.000071
-0.000029
0.000003
-0.000016
-0.000081
-0.000039
0.000013
0.000063
0.000144
0.000157
0.000107
0.000110
0.000063
0.000144
0.000202
0.000144
0.000121
0.000157
0.000262
0.000296
0.000401
0.000417
0.000357
0.000367
0.000391
0.000349
0.000199
0.000094
0.000089
0.000178
0.000281
0.000320
0.000346
0.000262
0.000197
0.000270
0.000291
0.000281
0.000268
0.000323
0.000270
0.000113
0.000003
0.000016
0.000042
0.000024
0.000110
0.000265
0.000299
0.000291
0.000307
0.000365
0.000270
0.000123
0.000089
0.000131
0.000194
0.000270
0.000349
0.000380
0.000310
0.000139
0.000181
0.000320
0.000412
0.000430
0.000367
0.000328
0.000265
0.000107
0.000079
0.000173
0.000160
0.000055
0.000160
0.000289
0.000317
0.000344
0.000338
0.000310
0.000202
0.000210
0.000357
0.000475
0.000488
0.000422
0.000420
0.000417
0.000386
0.000283
0.000207
0.000265
0.000286
0.000383
0.000485
0.000493
0.000299
0.000215
0.000254
0.000354
0.000399
0.000451
0.000493
0.000501
0.000462
0.000477
0.000485
0.000412
0.000328
0.000331
0.000375
0.000417
0.000378
0.000333
0.000352
0.000304
0.000359
0.000433
0.000459
0.000383
0.000346
0.000456
0.000519
0.000493
0.000446
0.000483
0.000467
0.000498
0.000498
0.000462
0.000438
0.000388
0.000420
0.000414
0.000414
0.000470
0.000441
0.000428
0.000393
0.000212
0.000131
0.000278
0.000485
0.000630
0.000622
0.000601
0.000656
0.000543
0.000441
0.000396
0.000312
0.000302
0.000325
0.000404
0.000417
0.000375
0.000270
0.000289
0.000338
0.000349
0.000430
0.000485
0.000527
0.000438
0.000378
0.000365
0.000333
0.000291
0.000268
0.000370
0.000412
0.000428
0.000498
0.000506
0.000470
0.000506
0.000569
0.000643
0.000690
0.000645
0.000693
0.000685
0.000682
0.000729
0.000769
0.000787
0.000798
0.000700
0.000645
0.000525
0.000540
0.000514
0.000451
0.000294
0.000126
0.000097
0.000128
0.000220
0.000281
0.000328
0.000409
0.000456
0.000407
0.000498
0.000540
0.000506
0.000372
0.000383
0.000433
0.000480
0.000525
0.000572
0.000630
0.000561
0.000491
0.000485
0.000472
0.000430
0.000477
0.000582
0.000658
0.000619
0.000530
0.000388
0.000354
0.000407
0.000380
0.000425
0.000383
0.000393
0.000443
0.000467
0.000430
0.000420
0.000483
0.000554
0.000632
0.000611
0.000519
0.000404
0.000333
0.000328
0.000425
0.000485
0.000509
0.000449
0.000396
0.000404
0.000441
0.000491
0.000372
0.000281
0.000286
0.000378
0.000420
0.000475
0.000470
0.000430
0.000401
0.000491
0.000559
0.000540
0.000577
0.000672
0.000693
0.000588
0.000554
0.000596
0.000617
0.000648
0.000677
0.000577
0.000464
0.000509
0.000585
0.000596
0.000653
0.000714
0.000685
0.000617
0.000498
0.000491
0.000428
0.000396
0.000464
0.000483
0.000425
0.000349
0.000401
0.000417
0.000372
0.000386
0.000383
0.000370
0.000331
0.000441
0.000580
0.000606
0.000703
0.000790
0.000758
0.000658
0.000470
0.000338
0.000312
0.000344
0.000509
0.000559
0.000561
0.000540
0.000551
0.000682
0.000787
0.000742
0.000658
0.000622
0.000561
0.000569
0.000585
0.000611
0.000509
0.000512
0.000585
0.000611
0.000590
0.000603
0.000498
0.000517
0.000619
0.000716
0.000606
0.000498
0.000438
0.000404
0.000396
0.000569
0.000690
0.000693
0.000672
0.000632
0.000619
0.000682
0.000735
0.000766
0.000669
0.000617
0.000601
0.000572
0.000648
0.000703
0.000575
0.000517
0.000564
0.000548
0.000519
0.000488
0.000512
0.000530
0.000593
0.000609
0.000519
0.000580
0.000700
0.000693
0.000601
0.000575
0.000564
0.000554
0.000375
0.000422
0.000564
0.000606
0.000661
0.000727
0.000666
0.000522
0.000509
0.000601
0.000609
0.000556
0.000527
0.000580
0.000535
0.000467
0.000357
0.000349
0.000399
0.000462
0.000517
0.000569
0.000577
0.000580
0.000533
0.000561
0.000580
0.000551
0.000533
0.000514
0.000498
0.000496
0.000483
0.000496
0.000564
0.000617
0.000619
0.000690
0.000756
0.000763
0.000706
0.000653
0.000585
0.000454
0.000357
0.000349
0.000378
0.000428
0.000488
0.000548
0.000572
0.000643
0.000687
0.000685
0.000698
0.000677
0.000603
0.000590
0.000632
0.000630
0.000643
0.000732
0.000803
0.000819
0.000777
0.000763
0.000716
0.000637
0.000561
0.000585
0.000575
0.000530
0.000546
0.000661
0.000745
0.000792
0.000800
0.000808
0.000761
0.000721
0.000706
0.000664
0.000724
0.000711
0.000700
0.000700
0.000651
0.000488
0.000467
0.000538
0.000491
0.000375
0.000417
0.000530
0.000590
0.000585
0.000614
0.000624
0.000512
0.000422
0.000472
0.000446
0.000472
0.000488
0.000530
0.000601
0.000677
0.000674
0.000593
0.000575
0.000488
0.000456
0.000483
0.000438
0.000433
0.000504
0.000635
0.000735
0.000758
0.000784
0.000700
0.000656
0.000695
0.000735
0.000708
0.000656
0.000669
0.000716
0.000658
0.000580
0.000538
0.000543
0.000567
0.000635
0.000732
0.000771
0.000706
0.000635
0.000577
0.000530
0.000546
0.000556
0.000643
0.000742
0.000740
0.000716
0.000777
0.000706
0.000669
0.000661
0.000693
0.000656
0.000664
0.000742
0.000756
0.000742
0.000714
0.000687
0.000598
0.000611
0.000627
0.000695
0.000672
0.000585
0.000459
0.000380
0.000428
0.000543
0.000637
0.000656
0.000763
0.000855
0.000845
0.000774
0.000695
0.000682
0.000698
0.000708
0.000714
0.000716
0.000679
0.000690
0.000693
0.000700
0.000653
0.000645
0.000727
0.000661
0.000640
0.000664
0.000698
0.000703
0.000771
0.000863
0.000855
0.000740
0.000695
0.000609
0.000525
0.000462
0.000498
0.000554
0.000477
0.000433
0.000491
0.000519
0.000611
0.000698
0.000735
0.000732
0.000703
0.000740
0.000672
0.000522
0.000572
0.000693
0.000742
0.000732
0.000850
0.000958
0.000947
0.000790
0.000588
0.000438
0.000425
0.000556
0.000716
0.000732
0.000729
0.000750
0.000811
0.000769
0.000693
0.000601
0.000572
0.000575
0.000674
0.000805
0.000758
0.000643
0.000695
0.000787
0.000816
0.000790
0.000745
0.000748
0.000740
0.000632
0.000588
0.000543
0.000514
0.000554
0.000698
0.000795
0.000766
0.000740
0.000816
0.000876
0.000840
0.000816
0.000840
0.000777
0.000695
0.000690
0.000742
0.000727
0.000727
0.000834
0.000950
0.000879
0.000871
0.000850
0.000790
0.000742
0.000745
0.000787
0.000756
0.000716
0.000750
0.000711
0.000700
0.000682
0.000687
0.000698
0.000819
0.000800
0.000766
0.000756
0.000766
0.000795
0.000795
0.000784
0.000732
0.000698
0.000617
0.000630
0.000637
0.000588
0.000609
0.000677
0.000672
0.000679
0.000693
0.000703
0.000622
0.000611
0.000708
0.000840
0.000889
0.000916
0.000897
0.000882
0.000863
0.000798
0.000819
0.000763
0.000732
0.000677
0.000679
0.000748
0.000716
0.000645
0.000617
0.000653
0.000619
0.000619
0.000695
0.000745
0.000708
0.000687
0.000777
0.000782
0.000690
0.000593
0.000527
0.000519
0.000527
0.000569
0.000677
0.000761
0.000758
0.000766
0.000855
0.000902
0.000790
0.000716
0.000711
0.000774
0.000790
0.000756
0.000753
0.000714
0.000721
0.000777
0.000837
0.000758
0.000653
0.000698
0.000729
0.000698
0.000648
0.000732
0.000819
0.000771
0.000732
0.000727
0.000721
0.000777
0.000761
0.000735
0.000769
0.000824
0.000845
0.000855
0.000840
0.000840
0.000803
0.000819
0.000908
0.000908
0.000895
0.000882
0.000863
0.000832
0.000837
0.000847
0.000861
0.000889
0.000834
0.000766
0.000687
0.000727
0.000837
0.000897
0.000889
0.000866
0.000850
0.000847
0.000882
0.000937
0.000895
0.000866
0.000824
0.000821
0.000798
0.000756
0.000700
0.000703
0.000698
0.000727
0.000790
0.000845
0.000866
0.000826
0.000826
0.000819
0.000845
0.000829
0.000853
0.000866
0.000808
0.000824
0.000816
0.000753
0.000700
0.000698
0.000729
0.000758
0.000808
0.000782
0.000787
0.000863
0.000855
0.000868
0.000853
0.000813
0.000805
0.000840
0.000774
0.000721
0.000666
0.000714
0.000798
0.000884
0.000929
0.000960
0.000882
0.000837
0.000824
0.000826
0.000766
0.000753
0.000845
0.000902
0.000926
0.000971
0.000937
0.000913
0.000855
0.000790
0.000795
0.000779
0.000861
0.000882
0.000826
0.000847
0.000874
0.000813
0.000695
0.000661
0.000656
0.000664
0.000703
0.000750
0.000800
0.000803
0.000826
0.000895
0.000889
0.000905
0.000866
0.000798
0.000777
0.000661
0.000661
0.000761
0.000819
0.000892
0.000910
0.000929
0.000845
0.000805
0.000721
0.000695
0.000698
0.000774
0.000819
0.000876
0.000887
0.000879
0.000858
0.000790
0.000742
0.000658
0.000596
0.000656
0.000761
0.000821
0.000834
0.000900
0.000950
0.000968
0.001026
0.001042
0.000984
0.000884
0.000803
0.000811
0.000816
0.000769
0.000732
0.000808
0.000779
0.000756
0.000777
0.000784
0.000756
0.000735
0.000832
0.000918
0.000934
0.000876
0.000847
0.000782
0.000740
0.000758
0.000787
0.000706
0.000756
0.000811
0.000834
0.000829
0.000774
0.000721
0.000617
0.000666
0.000803
0.000863
0.000868
0.000871
0.000826
0.000803
0.000808
0.000779
0.000774
0.000784
0.000832
0.000902
0.000897
0.000882
0.000819
0.000824
0.000879
0.000921
0.001000
0.001044
0.001049
0.001013
0.000992
0.000973
0.000937
0.000887
0.000832
0.000808
0.000840
0.000868
0.000916
0.000871
0.000866
0.000871
0.000905
0.000950
0.000897
0.000798
0.000737
0.000763
0.000766
0.000721
0.000679
0.000653
0.000727
0.000853
0.000902
0.000910
0.000863
0.000805
0.000742
0.000742
0.000798
0.000902
0.000918
0.000874
0.000879
0.000939
0.001007
0.001005
0.000923
0.000840
0.000737
0.000664
0.000703
0.000727
0.000706
0.000761
0.000769
0.000761
0.000766
0.000871
0.000934
0.000879
0.000795
0.000769
0.000782
0.000816
0.000861
0.000853
0.000811
0.000895
0.000971
0.001018
0.000984
0.000871
0.000834
0.000868
0.000926
0.001015
0.001021
0.000992
0.000950
0.000934
0.000889
0.000800
0.000758
0.000711
0.000677
0.000672
0.000664
0.000700
0.000679
0.000685
0.000753
0.000742
0.000805
0.000798
0.000798
0.000790
0.000832
0.000853
0.000863
0.000834
0.000758
0.000745
0.000758
0.000792
0.000816
0.000800
0.000771
0.000763
0.000737
0.000803
0.000834
0.000808
0.000858
0.000902
0.000895
0.000884
0.000876
0.000861
0.000813
0.000735
0.000669
0.000648
0.000617
0.000679
0.000792
0.000884
0.000876
0.000926
0.000963
0.000958
0.000937
0.000868
0.000871
0.000931
0.000884
0.000858
0.000803
0.000876
0.000918
0.000968
0.000984
0.000989
0.000984
0.000989
0.001031
0.001023
0.000992
0.000965
0.000931
0.000913
0.000939
0.000895
0.000866
0.000850
0.000882
0.000897
0.000882
0.000916
0.000960
0.000965
0.000944
0.000939
0.000931
0.000858
0.000824
0.000847
0.000819
0.000824
0.000792
0.000826
0.000834
0.000882
0.000937
0.000989
0.000973
0.000955
0.000929
0.000900
0.000847
0.000811
0.000887
0.000921
0.000944
0.000952
0.001002
0.001042
0.001015
0.000963
0.000918
0.000868
0.000855
0.000866
0.000887
0.000950
0.001010
0.001057
0.001036
0.000944
0.000874
0.000887
0.000850
0.000908
0.000921
0.000971
0.000926
0.000853
0.000813
0.000777
0.000795
0.000782
0.000853
0.000850
0.000779
0.000774
0.000808
0.000834
0.000811
0.000826
0.000879
0.000950
0.000963
0.000973
0.000997
0.000902
0.000895
0.000895
0.000923
0.000887
0.000897
0.000950
0.000929
0.000868
0.000853
0.000876
0.000871
0.000821
0.000792
0.000769
0.000679
0.000635
0.000687
0.000842
0.000921
0.000942
0.000952
0.000929
0.000884
0.000847
0.000811
0.000816
0.000837
0.000913
0.000939
0.000976
0.000976
0.001002
0.001018
0.001068
0.001131
0.001112
0.001047
0.000931
0.000889
0.000882
0.000829
0.000826
0.000887
0.000868
0.000790
0.000761
0.000826
0.000837
0.000855
0.000892
0.000929
0.000939
0.000868
0.000902
0.000879
0.000782
0.000737
0.000798
0.000876
0.000960
0.001036
0.001078
0.001049
0.001023
0.000979
0.000958
0.000900
0.000884
0.000913
0.000889
0.000855
0.000861
0.000832
0.000824
0.000790
0.000813
0.000871
0.000868
0.000910
0.000955
0.000984
0.000979
0.000984
0.000950
0.000944
0.000897
0.000882
0.000871
0.000902
0.000866
0.000824
0.000887
0.000837
0.000842
0.000892
0.000897
0.000850
0.000889
0.000963
0.000965
0.000937
0.000889
0.000871
0.000819
0.000834
0.000895
0.000887
0.000777
0.000763
0.000808
0.000882
0.000929
0.000916
0.000921
0.000871
0.000884
0.000874
0.000800
0.000732
0.000735
0.000756
0.000792
0.000866
0.000960
0.000979
0.001005
0.000937
0.000968
0.000937
0.000955
0.001031
0.000950
0.000871
0.000816
0.000866
0.000884
0.000879
0.000931
0.000984
0.001068
0.001049
0.001102
0.001115
0.001034
0.000929
0.000832
0.000748
0.000766
0.000808
0.000895
0.000918
0.000918
0.000871
0.000805
0.000882
0.000942
0.000950
0.000955
0.001002
0.001076
0.001081
0.001078
0.001110
0.001000
0.000908
0.000884
0.000929
0.000989
0.000971
0.000952
0.001002
0.000994
0.001036
0.001023
0.001018
0.000939
0.000887
0.000858
0.000855
0.000905
0.000984
0.001047
0.001021
0.000979
0.000965
0.000971
0.000965
0.001005
0.000986
0.000952
0.000934
0.000929
0.001000
0.000973
0.000913
0.000916
0.000939
0.000994
0.000971
0.000976
0.000884
0.000847
0.000840
0.000900
0.000900
0.000876
0.000866
0.000939
0.000955
0.000931
0.000887
0.000863
0.000837
0.000858
0.000884
0.000895
0.000876
0.000916
0.000952
0.001055
0.001036
0.001049
0.000950
0.000931
0.000976
0.000994
0.000955
0.000908
0.000947
0.000981
0.001005
0.001042
0.000981
0.000971
0.000971
0.000937
0.000895
0.000934
0.000997
0.000937
0.000902
0.000879
0.000798
0.000782
0.000858
0.001007
0.001018
0.000965
0.000929
0.000939
0.000934
0.000947
0.000958
0.000960
0.000960
0.001023
0.001044
0.001005
0.000902
0.000821
0.000784
0.000784
0.000895
0.000971
0.000976
0.001000
0.000979
0.000992
0.000992
0.000968
0.000971
0.000979
0.000942
0.000897
0.000847
0.000845
0.000861
0.000819
0.000866
0.000942
0.000979
0.001028
0.001065
0.001086
0.001023
0.000968
0.001018
0.001031
0.001036
0.001036
0.000955
0.000910
0.000842
0.000840
0.000950
0.000989
0.000963
0.000960
0.000976
0.001005
0.000926
0.000929
0.000984
0.001081
0.001118
0.001147
0.001110
0.001057
0.001047
0.001036
0.001023
0.000984
0.000947
0.000926
0.000944
0.000923
0.000902
0.000916
0.000939
0.000931
0.000923
0.000874
0.000861
0.000892
0.000960
0.001018
0.001076
0.001110
0.001144
0.001102
0.001005
0.000976
0.000984
0.000958
0.000892
0.000876
0.000900
0.000908
0.000868
0.000842
0.000774
0.000727
0.000737
0.000777
0.000861
0.000902
0.000973
0.000947
0.000916
0.000960
0.000952
0.000923
0.000908
0.000963
0.000979
0.000994
0.001052
0.001063
0.000997
0.000905
0.000958
0.001018
0.000994
0.000950
0.000929
0.000989
0.000944
0.000944
0.000979
0.000963
0.000929
0.000934
0.000952
0.000960
0.000947
0.000994
0.001026
0.001028
0.000895
0.000816
0.000748
0.000750
0.000819
0.000913
0.000955
0.001007
0.001007
0.000955
0.000923
0.000931
0.000952
0.000981
0.001015
0.001044
0.001089
0.001126
0.001118
0.001055
0.001005
0.000921
0.000871
0.000874
0.000861
0.000832
0.000874
0.000976
0.001010
0.001049
0.001063
0.001120
0.001034
0.000955
0.000958
0.000950
0.000916
0.000939
0.000971
0.000992
0.000939
0.000918
0.000931
0.000921
0.000902
0.000939
0.001010
0.001081
0.001057
0.001042
0.001076
0.001084
0.001047
0.001057
0.001070
0.001081
0.001099
0.001070
0.001055
0.001026
0.001023
0.001010
0.000926
0.000871
0.000934
0.000947
0.000939
0.000944
0.000952
0.000902
0.000887
0.000950
0.001036
0.001073
0.001057
0.001084
0.001120
0.001120
0.001084
0.001128
0.001139
0.001094
0.001107
0.001154
0.001147
0.001063
0.001005
0.000979
0.000979
0.001002
0.001081
0.001165
0.001165
0.001141
0.001128
0.001139
0.001136
0.001136
0.001084
0.000965
0.000837
0.000819
0.000908
0.000929
0.000861
0.000908
0.000934
0.000992
0.001089
0.001086
0.000960
0.000884
0.000931
0.001002
0.001065
0.001097
0.001139
0.001175
0.001152
0.001128
0.001094
0.001049
0.000976
0.000952
0.000997
0.000994
0.001031
0.000979
0.000944
0.000963
0.000976
0.000984
0.000979
0.001026
0.001055
0.001044
0.001010
0.001010
0.000958
0.000916
0.000866
0.000931
0.000923
0.000976
0.000971
0.000929
0.000918
0.000913
0.000963
0.001021
0.001026
0.001010
0.000929
0.000942
0.001042
0.001052
0.001000
0.001018
0.000958
0.000923
0.000942
0.001018
0.001052
0.001052
0.000992
0.001010
0.001002
0.001039
0.001034
0.001021
0.000973
0.000994
0.001084
0.001094
0.001060
0.001005
0.000923
0.000923
0.001010
0.001052
0.001013
0.000984
0.000984
0.000952
0.000947
0.000989
0.001015
0.001049
0.001047
0.001063
0.001068
0.001084
0.001120
0.001110
0.001047
0.001039
0.001023
0.001023
0.000976
0.000944
0.000944
0.000897
0.000824
0.000826
0.000858
0.000800
0.000826
0.000868
0.000942
0.000968
0.000997
0.001044
0.001084
0.001120
0.001112
0.001102
0.001052
0.001042
0.000989
0.001002
0.001047
0.001031
0.000976
0.001010
0.001021
0.000971
0.000916
0.000918
0.000958
0.000958
0.000965
0.001018
0.001063
0.001049
0.001084
0.001084
0.000984
0.000923
0.000826
0.000795
0.000863
0.000921
0.000963
0.000950
0.001002
0.001013
0.000947
0.000929
0.001000
0.001078
0.001089
0.001097
0.001097
0.001031
0.000986
0.001031
0.001107
0.001089
0.001112
0.001144
0.001154
0.001060
0.000992
0.001034
0.001005
0.001018
0.001047
0.001157
0.001112
0.001112
0.001144
0.001091
0.001052
0.001005
0.001039
0.001042
0.001010
0.000955
0.000942
0.000931
0.000921
0.000931
0.001010
0.001078
0.001089
0.001049
0.001073
0.001091
0.001076
0.001068
0.001068
0.001097
0.001094
0.001068
0.001018
0.000965
0.001005
0.001039
0.001084
0.001086
0.001107
0.001063
0.001013
0.001015
0.001081
0.001084
0.001060
0.001089
0.001099
0.001123
0.001105
0.001031
0.001000
0.000939
0.000913
0.000900
0.000879
0.000926
0.000952
0.000913
0.000950
0.000895
0.000887
0.000908
0.000931
0.000963
0.000950
0.000916
0.001013
0.001070
0.001042
0.001000
0.001010
0.001007
0.001010
0.001021
0.001055
0.001076
0.001013
0.001021
0.001052
0.001049
0.001047
0.001052
0.001039
0.001034
0.001023
0.001049
0.001112
0.001120
0.001076
0.001044
0.001026
0.000984
0.000937
0.000976
0.001013
0.001036
0.001010
0.001034
0.001084
0.001081
0.001144
0.001173
0.001188
0.001154
0.001115
0.001081
0.001021
0.001002
0.001021
0.001076
0.001118
0.001097
0.001065
0.001105
0.001086
0.001097
0.001078
0.001099
0.001115
0.001112
0.001126
0.001112
0.001057
0.000929
0.000871
0.000931
0.000955
0.000960
0.001021
0.001094
0.001055
0.001044
0.001015
0.001031
0.000989
0.001018
0.001081
0.001170
0.001175
0.001183
0.001120
0.001044
0.001000
0.000952
0.001010
0.001047
0.001047
0.001057
0.001055
0.001049
0.000989
0.000989
0.001039
0.001065
0.001057
0.001036
0.001042
0.001052
0.001044
0.001076
0.001063
0.001112
0.001068
0.001068
0.001060
0.001086
0.001047
0.001068
0.001110
0.001086
0.000979
0.000913
0.000942
0.000989
0.001099
0.001149
0.001123
0.001084
0.001063
0.001007
0.000942
0.000971
0.001065
0.001089
0.001120
0.001141
0.001112
0.001139
0.001168
0.001128
0.001044
0.001015
0.001081
0.001110
0.001110
0.001152
0.001162
0.001207
0.001160
0.001173
0.001149
0.001097
0.001055
0.001068
0.001034
0.001015
0.000979
0.001002
0.001002
0.001042
0.001102
0.001168
0.001183
0.001168
0.001178
0.001144
0.001118
0.001073
0.001118
0.001036
0.000963
0.000986
0.000989
0.000984
0.000976
0.000976
0.000947
0.000981
0.000984
0.001028
0.001042
0.001039
0.001021
0.001084
0.001112
0.001028
0.001031
0.001047
0.001063
0.001089
0.001084
0.001081
0.001073
0.001000
0.000960
0.000952
0.000981
0.000955
0.000947
0.000918
0.000947
0.000979
0.000981
0.000952
0.000971
0.000965
0.001042
0.001089
0.001091
0.001105
0.001063
0.001049
0.001110
0.001089
0.001094
0.001021
0.000992
0.000976
0.000950
0.001026
0.001102
0.001118
0.001133
0.001102
0.001076
0.001086
0.001057
0.001081
0.001010
0.000942
0.000976
0.001070
0.001118
0.001144
0.001154
0.001168
0.001204
0.001212
0.001202
0.001149
0.001105
0.001036
0.001031
0.001057
0.001076
0.001065
0.001060
0.000965
0.000889
0.000926
0.000923
0.000861
0.000871
0.000913
0.000997
0.001065
0.001118
0.001154
0.001136
0.001144
0.001162
0.001084
0.001039
0.000950
0.000944
0.000958
0.000971
0.001015
0.001063
0.001097
0.001110
0.001097
0.001084
0.001081
0.001084
0.001105
0.001065
0.001073
0.001065
0.001055
0.001076
0.001076
0.001000
0.000986
0.000944
0.000973
0.000960
0.000997
0.001065
0.001118
0.001123
0.001097
0.001107
0.001089
0.001102
0.001115
0.001099
0.001126
0.001170
0.001191
0.001144
0.001115
0.001073
0.001076
0.001044
0.001057
0.001049
0.001015
0.001063
0.001115
0.001084
0.001023
0.000939
0.000968
0.001086
0.001094
0.001055
0.001052
0.001068
0.001115
0.001097
0.001160
0.001173
0.001168
0.001162
0.001165
0.001183
0.001144
0.001099
0.001139
0.001199
0.001220
0.001202
0.001157
0.001141
0.001107
0.001036
0.001068
0.001094
0.001147
0.001175
0.001186
0.001154
0.001094
0.001028
0.000994
0.000986
0.000984
0.000955
0.001010
0.001026
0.001042
0.001044
0.001084
0.001023
0.000984
0.000971
0.000929
0.000952
0.000986
0.001002
0.001023
0.001023
0.001007
0.000916
0.000913
0.000942
0.000984
0.001063
0.001063
0.001118
0.001115
0.001115
0.001147
0.001089
0.001084
0.001042
0.001078
0.001097
0.001115
0.001149
0.001147
0.001120
0.001131
0.001110
0.001084
0.001021
0.001005
0.001021
0.000989
0.001034
0.001086
0.001065
0.001042
0.001091
0.001168
0.001154
0.001128
0.001149
0.001094
0.001063
0.001073
0.001120
0.001102
0.001076
0.001107
0.001084
0.001120
0.001128
0.001105
0.001144
0.001160
0.001157
0.001091
0.001052
0.001076
0.001115
0.001136
0.001186
0.001154
0.001112
0.001173
0.001160
0.001168
0.001196
0.001196
0.001202
0.001168
0.001149
0.001188
0.001099
0.001044
0.001034
0.000986
0.000979
0.001047
0.001084
0.001115
0.001128
0.001128
0.001115
0.001128
0.001126
0.001136
0.001131
0.001120
0.001115
0.001078
0.001081
0.001099
0.001063
0.001060
0.001068
0.001073
0.001094
0.001052
0.001094
0.001147
0.001123
0.001152
0.001162
0.001126
0.001078
0.001126
0.001084
0.001047
0.000994
0.000971
0.000979
0.000955
0.001000
0.001052
0.001078
0.001091
0.001144
0.001162
0.001105
0.001057
0.001044
0.001031
0.001028
0.000979
0.000960
0.001021
0.001057
0.001081
0.001126
0.001118
0.001126
0.001175
0.001160
0.001102
0.001105
0.001118
0.001128
0.001091
0.001031
0.001068
0.001070
0.001068
0.001073
0.001039
0.001007
0.001021
0.001057
0.001107
0.001099
0.001047
0.001042
0.001047
0.001057
0.001026
0.001068
0.001081
0.001105
0.001118
0.001160
0.001147
0.001118
0.001070
0.001047
0.001063
0.001097
0.001123
0.001105
0.001112
0.001091
0.001065
0.001076
0.001141
0.001220
0.001199
0.001175
0.001131
0.001107
0.001118
0.001120
0.001139
0.001120
0.001102
0.001084
0.001110
0.001133
0.001115
0.001102
0.001112
0.001115
0.001081
0.001086
0.001120
0.001147
0.001170
0.001099
0.001047
0.001010
0.001005
0.001102
0.001126
0.001131
0.001110
0.001123
0.001160
0.001144
0.001144
0.001118
0.001060
0.001097
0.001147
0.001157
0.001133
0.001136
0.001175
0.001139
0.001094
0.001013
0.001107
0.001168
0.001175
0.001178
0.001112
0.001091
0.001086
0.001105
0.001078
0.001057
0.000994
0.000952
0.001000
0.001070
0.000989
0.000994
0.001028
0.001021
0.001060
0.001128
0.001139
0.001081
0.001042
0.001057
0.001107
0.001126
0.001105
0.001107
0.001131
0.001099
0.001063
0.001068
0.001063
0.001073
0.001068
0.001094
0.001183
0.001152
0.001141
0.001147
0.001152
0.001139
0.001123
0.001099
0.001081
0.001084
0.001084
0.001086
0.001084
0.001084
0.001065
0.001052
0.001078
0.001065
0.001047
0.001107
0.001170
0.001178
0.001170
0.001202
0.001199
0.001186
0.001186
0.001102
0.001055
0.001047
0.001091
0.001144
0.001133
0.001123
0.001141
0.001168
0.001173
0.001152
0.001136
0.001094
0.001112
0.001091
0.001089
0.001105
0.001128
0.001123
0.001097
0.001126
0.001126
0.001133
0.001144
0.001196
0.001209
0.001191
0.001173
0.001157
0.001209
0.001133
0.001036
0.001002
0.001023
0.001076
0.001063
0.001070
0.001118
0.001126
0.001131
0.001118
0.001070
0.000979
0.001031
0.001141
0.001188
0.001165
0.001196
0.001230
0.001183
0.001139
0.001086
0.001102
0.001168
0.001188
0.001149
0.001165
0.001199
0.001178
0.001186
0.001165
0.001162
0.001036
0.000916
0.000937
0.001036
0.001036
0.001007
0.001021
0.001057
0.001070
0.001081
0.001162
0.001183
0.001110
0.001115
0.001154
0.001141
0.001107
0.001131
0.001120
0.001147
0.001168
0.001162
0.001202
0.001196
0.001207
0.001168
0.001157
0.001199
0.001233
0.001251
0.001223
0.001160
0.001147
0.001160
0.001070
0.001089
0.001076
0.001060
0.001039
0.001107
0.001186
0.001178
0.001084
0.001044
0.001076
0.001094
0.001107
0.001123
0.001118
0.001084
0.001086
0.001110
0.001128
0.001081
0.001044
0.001107
0.001165
0.001186
0.001215
0.001212
0.001157
0.001175
0.001188
0.001181
0.001131
0.001091
0.001120
0.001076
0.001089
0.001133
0.001188
0.001168
0.001170
0.001196
0.001170
0.001152
0.001107
0.001105
0.001089
0.001120
0.001152
0.001152
0.001157
0.001196
0.001217
0.001204
0.001181
0.001168
0.001147
0.001136
0.001162
0.001188
0.001152
0.001102
0.001162
0.001215
0.001199
0.001165
0.001183
0.001199
0.001186
0.001178
0.001136
0.001112
0.001149
0.001089
0.001023
0.000973
0.000976
0.001010
0.001089
0.001091
0.001078
0.001091
0.001086
0.001091
0.001120
0.001147
0.001076
0.001089
0.001141
0.001147
0.001160
0.001141
0.001026
0.000971
0.000963
0.001028
0.001099
0.001107
0.001147
0.001149
0.001112
0.001191
0.001207
0.001128
0.001105
0.001154
0.001202
0.001162
0.001133
0.001170
0.001141
0.001128
0.001141
0.001115
0.001026
0.000965
0.000981
0.001097
0.001078
0.001076
0.001126
0.001136
0.001112
0.001110
0.001078
0.001070
0.001091
0.001094
0.001126
0.001139
0.001115
0.001152
0.001223
0.001244
0.001230
0.001230
0.001283
0.001254
0.001194
0.001165
0.001154
0.001141
0.001107
0.001225
0.001212
0.001178
0.001139
0.001107
0.001112
0.001173
0.001157
0.001105
0.001065
0.001057
0.001070
0.001078
0.001036
0.001023
0.001023
0.001065
0.001157
0.001204
0.001175
0.001173
0.001230
0.001299
0.001272
0.001280
0.001259
0.001228
0.001225
0.001238
0.001228
0.001183
0.001118
0.001152
0.001188
0.001212
0.001152
0.001128
0.001112
0.001136
0.001118
0.001094
0.001152
0.001194
0.001173
0.001207
0.001204
0.001168
0.001131
0.001191
0.001181
0.001202
0.001209
0.001207
0.001223
0.001225
0.001244
0.001230
0.001188
0.001181
0.001131
0.001091
0.001112
0.001144
0.001165
0.001183
0.001207
0.001215
0.001225
0.001191
0.001139
0.001126
0.001139
0.001147
0.001162
0.001181
0.001160
0.001141
0.001168
0.001188
0.001136
0.001091
0.001057
0.001065
0.001112
0.001178
0.001170
0.001149
0.001157
0.001175
0.001149
0.001107
0.001112
0.001168
0.001186
0.001207
0.001178
0.001147
0.001131
0.001136
0.001144
0.001157
0.001157
0.001136
0.001094
0.001091
0.001175
0.001225
0.001215
0.001215
0.001212
0.001212
0.001170
0.001188
0.001089
0.001091
0.001060
0.001118
0.001196
0.001215
0.001212
0.001202
0.001196
0.001191
0.001165
0.001152
0.001118
0.001118
0.001099
0.001118
0.001168
0.001175
0.001162
0.001168
0.001175
0.001204
0.001225
0.001272
0.001262
0.001225
0.001228
0.001173
0.001123
0.001118
0.001157
0.001183
0.001202
0.001220
0.001212
0.001194
0.001173
0.001191
0.001178
0.001236
0.001230
0.001215
0.001178
0.001165
0.001170
0.001165
0.001178
0.001188
0.001162
0.001136
0.001073
0.001097
0.001149
0.001186
0.001220
0.001233
0.001209
0.001191
0.001181
0.001204
0.001141
0.001089
0.001023
0.001042
0.001099
0.001168
0.001215
0.001199
0.001191
0.001181
0.001152
0.001162
0.001154
0.001162
0.001191
0.001215
0.001181
0.001073
0.001007
0.000979
0.000986
0.001042
0.001068
0.001099
0.001141
0.001194
0.001236
0.001209
0.001207
0.001215
0.001154
0.001196
0.001233
0.001228
0.001188
0.001186
0.001212
0.001188
0.001154
0.001141
0.001131
0.001141
0.001107
0.001126
0.001178
0.001183
0.001165
0.001186
0.001207
0.001165
0.001133
0.001152
0.001165
0.001078
0.001063
0.001139
0.001102
0.001049
0.001081
0.001162
0.001178
0.001152
0.001147
0.001183
0.001154
0.001091
0.001052
0.001039
0.001039
0.001052
0.001086
0.001120
0.001131
0.001128
0.001149
0.001162
0.001173
0.001165
0.001199
0.001254
0.001223
0.001139
0.001102
0.001115
0.001120
0.001144
0.001131
0.001144
0.001126
0.001115
0.001136
0.001194
0.001244
0.001262
0.001272
0.001249
0.001267
0.001259
0.001275
0.001272
0.001238
0.001178
0.001126
0.001149
0.001112
0.001105
0.001128
0.001173
0.001131
0.001110
0.001105
0.001081
0.001131
0.001128
0.001123
0.001170
0.001186
0.001170
0.001194
0.001160
0.001110
0.001107
0.001112
0.001188
0.001139
0.001105
0.001147
0.001183
0.001181
0.001168
0.001196
0.001202
0.001173
0.001225
0.001217
0.001181
0.001152
0.001136
0.001175
0.001215
0.001188
0.001181
0.001107
0.001070
0.001128
0.001173
0.001136
0.001149
0.001165
0.001209
0.001183
0.001152
0.001118
0.001123
0.001089
0.001099
0.001168
0.001188
0.001154
0.001144
0.001149
0.001162
0.001131
0.001120
0.001107
0.001107
0.001097
0.001154
0.001220
0.001225
0.001228
0.001246
0.001233
0.001236
0.001228
0.001199
0.001175
0.001175
0.001191
0.001170
0.001120
0.001118
0.001099
0.001128
0.001144
0.001178
0.001175
0.001120
0.001110
0.001149
0.001191
0.001217
0.001225
0.001188
0.001209
0.001209
0.001178
0.001204
0.001207
0.001202
0.001209
0.001209
0.001194
0.001194
0.001160
0.001204
0.001212
0.001186
0.001244
0.001286
0.001249
0.001238
0.001207
0.001168
0.001188
0.001183
0.001209
0.001209
0.001152
0.001157
0.001212
0.001194
0.001220
0.001223
0.001228
0.001228
0.001183
0.001165
0.001212
0.001215
0.001270
0.001265
0.001257
0.001267
0.001262
0.001251
0.001202
0.001191
0.001165
0.001178
0.001204
0.001215
0.001194
0.001196
0.001194
0.001225
0.001209
0.001168
0.001178
0.001196
0.001181
0.001178
0.001225
0.001236
0.001188
0.001186
0.001175
0.001149
0.001086
0.001073
0.001133
0.001160
0.001191
0.001204
0.001223
0.001223
0.001220
0.001194
0.001188
0.001191
0.001178
0.001183
0.001204
0.001220
0.001196
0.001128
0.001099
0.001139
0.001128
0.001147
0.001175
0.001194
0.001199
0.001199
0.001157
0.001139
0.001112
0.001183
0.001191
0.001147
0.001133
0.001139
0.001107
0.001081
0.001105
0.001123
0.001091
0.001160
0.001233
0.001241
0.001241
0.001238
0.001183
0.001152
0.001157
0.001181
0.001202
0.001207
0.001230
0.001207
0.001165
0.001136
0.001152
0.001128
0.001110
0.001191
0.001217
0.001225
0.001265
0.001270
0.001217
0.001186
0.001202
0.001160
0.001139
0.001141
0.001131
0.001170
0.001238
0.001217
0.001178
0.001181
0.001225
0.001225
0.001199
0.001225
0.001228
0.001154
0.001112
0.001126
0.001157
0.001107
0.001141
0.001241
0.001249
0.001251
0.001265
0.001257
0.001236
0.001251
0.001275
0.001238
0.001236
0.001225
0.001251
0.001257
0.001215
0.001183
0.001128
0.001162
0.001230
0.001246
0.001168
0.001139
0.001157
0.001136
0.001170
0.001223
0.001191
0.001123
0.001105
0.001133
0.001178
0.001144
0.001120
0.001157
0.001168
0.001220
0.001230
0.001286
0.001257
0.001220
0.001196
0.001223
0.001217
0.001244
0.001296
0.001296
0.001238
0.001202
0.001186
0.001267
0.001259
0.001209
0.001162
0.001152
0.001160
0.001133
0.001115
0.001081
0.001026
0.001089
0.001168
0.001196
0.001209
0.001183
0.001178
0.001223
0.001244
0.001225
0.001220
0.001204
0.001207
0.001259
0.001280
0.001259
0.001246
0.001186
0.001154
0.001160
0.001204
0.001223
0.001217
0.001225
0.001236
0.001262
0.001162
0.001144
0.001175
0.001183
0.001191
0.001199
0.001215
0.001173
0.001133
0.001165
0.001202
0.001173
0.001157
0.001186
0.001207
0.001181
0.001220
0.001220
0.001202
0.001183
0.001133
0.001154
0.001186
0.001188
0.001186
0.001217
0.001223
0.001230
0.001233
0.001188
0.001196
0.001183
0.001160
0.001175
0.001091
0.001070
0.001099
0.001168
0.001194
0.001191
0.001212
0.001223
0.001196
0.001207
0.001188
0.001162
0.001157
0.001188
0.001217
0.001191
0.001157
0.001209
0.001191
0.001188
0.001186
0.001178
0.001212
0.001194
0.001236
0.001257
0.001223
0.001230
0.001233
0.001236
0.001257
0.001246
0.001220
0.001175
0.001212
0.001267
0.001280
0.001272
0.001283
0.001288
0.001257
0.001244
0.001202
0.001199
0.001181
0.001191
0.001196
0.001181
0.001131
0.001126
0.001128
0.001170
0.001188
0.001246
0.001209
0.001102
0.001055
0.001055
0.001133
0.001144
0.001131
0.001162
0.001154
0.001133
0.001144
0.001154
0.001102
0.001052
0.001091
0.001149
0.001136
0.001110
0.001112
0.001136
0.001118
0.001120
0.001147
0.001168
0.001173
0.001215
0.001223
0.001199
0.001165
0.001160
0.001157
0.001183
0.001209
0.001212
0.001230
0.001254
0.001265
0.001257
0.001283
0.001283
0.001293
0.001278
0.001267
0.001246
0.001236
0.001246
0.001212
0.001251
0.001244
0.001251
0.001246
0.001199
0.001196
0.001199
0.001165
0.001128
0.001175
0.001223
0.001246
0.001259
0.001283
0.001236
0.001173
0.001162
0.001165
0.001173
0.001141
0.001157
0.001207
0.001244
0.001267
0.001286
0.001272
0.001217
0.001209
0.001225
0.001233
0.001236
0.001236
0.001236
0.001199
0.001220
0.001257
0.001246
0.001249
0.001244
0.001244
0.001225
0.001191
0.001220
0.001270
0.001238
0.001223
0.001275
0.001241
0.001207
0.001236
0.001257
0.001202
0.001207
0.001168
0.001089
0.001036
0.001042
0.001120
0.001144
0.001144
0.001147
0.001183
0.001186
0.001207
0.001220
0.001212
0.001188
0.001209
0.001246
0.001312
0.001322
0.001325
0.001278
0.001225
0.001225
0.001204
0.001202
0.001196
0.001212
0.001199
0.001178
0.001157
0.001204
0.001209
0.001230
0.001236
0.001236
0.001236
0.001230
0.001225
0.001183
0.001149
0.001147
0.001149
0.001139
0.001120
0.001147
0.001152
0.001183
0.001186
0.001204
0.001207
0.001199
0.001228
0.001209
0.001207
0.001157
0.001212
0.001257
0.001246
0.001223
0.001207
0.001257
0.001246
0.001265
0.001262
0.001257
0.001228
0.001178
0.001168
0.001181
0.001202
0.001207
0.001202
0.001241
0.001275
0.001236
0.001202
0.001194
0.001199
0.001147
0.001057
0.001042
0.001097
0.001136
0.001118
0.001162
0.001191
0.001160
0.001186
0.001236
0.001257
0.001275
0.001265
0.001225
0.001244
0.001249
0.001209
0.001272
0.001272
0.001275
0.001259
0.001262
0.001259
0.001244
0.001225
0.001204
0.001228
0.001175
0.001188
0.001162
0.001212
0.001196
0.001154
0.001133
0.001141
0.001149
0.001123
0.001149
0.001181
0.001178
0.001188
0.001165
0.001091
0.001115
0.001162
0.001228
0.001246
0.001212
0.001160
0.001202
0.001257
0.001278
0.001301
0.001265
0.001259
0.001217
0.001223
0.001293
0.001325
0.001267
0.001304
0.001328
0.001314
0.001278
0.001230
0.001188
0.001136
0.001139
0.001160
0.001181
0.001170
0.001168
0.001212
0.001186
0.001160
0.001191
0.001225
0.001204
0.001196
0.001188
0.001220
0.001228
0.001220
0.001257
0.001241
0.001204
0.001188
0.001196
0.001244
0.001251
0.001173
0.001165
0.001183
0.001188
0.001230
0.001241
0.001251
0.001212
0.001283
0.001322
0.001333
0.001299
0.001278
0.001286
0.001272
0.001254
0.001233
0.001272
0.001322
0.001338
0.001301
0.001259
0.001254
0.001183
0.001199
0.001188
0.001225
0.001223
0.001204
0.001168
0.001196
0.001241
0.001223
0.001259
0.001270
0.001215
0.001220
0.001262
0.001278
0.001286
0.001278
0.001272
0.001230
0.001265
0.001286
0.001286
0.001283
0.001265
0.001249
0.001265
0.001275
0.001262
0.001259
0.001265
0.001270
0.001267
0.001246
0.001238
0.001241
0.001236
0.001228
0.001244
0.001215
0.001244
0.001270
0.001236
0.001270
0.001275
0.001241
0.001236
0.001178
0.001188
0.001217
0.001278
0.001244
0.001202
0.001207
0.001199
0.001236
0.001246
0.001241
0.001225
0.001251
0.001301
0.001328
0.001304
0.001254
0.001278
0.001228
0.001246
0.001291
0.001293
0.001280
0.001244
0.001209
0.001212
0.001254
0.001246
0.001194
0.001162
0.001212
0.001244
0.001238
0.001249
0.001307
0.001283
0.001209
0.001168
0.001147
0.001139
0.001123
0.001131
0.001144
0.001191
0.001196
0.001199
0.001215
0.001251
0.001223
0.001254
0.001307
0.001320
0.001333
0.001312
0.001272
0.001244
0.001215
0.001244
0.001236
0.001212
0.001244
0.001291
0.001304
0.001291
0.001254
0.001207
0.001204
0.001207
0.001262
0.001228
0.001173
0.001165
0.001199
0.001225
0.001220
0.001228
0.001236
0.001233
0.001228
0.001246
0.001257
0.001251
0.001228
0.001225
0.001228
0.001280
0.001267
0.001230
0.001212
0.001236
0.001241
0.001275
0.001278
0.001286
0.001314
0.001259
0.001236
0.001241
0.001186
0.001196
0.001236
0.001275
0.001209
0.001212
0.001207
0.001181
0.001133
0.001131
0.001170
0.001230
0.001196
0.001157
0.001128
0.001141
0.001188
0.001181
0.001165
0.001188
0.001149
0.001152
0.001165
0.001215
0.001223
0.001212
0.001173
0.001207
0.001254
0.001265
0.001278
0.001215
0.001181
0.001233
0.001267
0.001309
0.001299
0.001283
0.001241
0.001225
0.001228
0.001267
0.001272
0.001259
0.001296
0.001320
0.001317
0.001278
0.001175
0.001102
0.001060
0.001118
0.001133
0.001141
0.001118
0.001144
0.001152
0.001152
0.001225
0.001236
t0(sec) = 0.000000E+0
dt(sec) = 4.000000E-10
F3:INSP "
DESCRIPTOR_NAME    : WAVEDESC           
TEMPLATE_NAME      : LECROY_2_3         
COMM_TYPE          : word               
COMM_ORDER         : HIFIRST            
WAVE_DESCRIPTOR    : 346                
USER_TEXT          : 0                  
RES_DESC1          : 0                  
TRIGTIME_ARRAY     : 0                  
RIS_TIME_ARRAY     : 0                  
RES_ARRAY1         : 0                  
WAVE_ARRAY_1       : 9952               
WAVE_ARRAY_2       : 0                  
RES_ARRAY2         : 0                  
RES_ARRAY3         : 0                  
INSTRUMENT_NAME    : LECROYHDO6104      
INSTRUMENT_NUMBER  : 6308               
TRACE_LABEL        :                    
RESERVED1          : 4976               
RESERVED2          : 0                  
WAVE_ARRAY_COUNT   : 4976               
PNTS_PER_SCREEN    : 5000               
FIRST_VALID_PNT    : 0                  
LAST_VALID_PNT     : 4975               
FIRST_POINT        : 0                  
SPARSING_FACTOR    : 1                  
SEGMENT_INDEX      : 0                  
SUBARRAY_COUNT     : 1                  
SWEEPS_PER_ACQ     : 200                
POINTS_PER_PAIR    : 0                  
PAIR_OFFSET        : 0                  
VERTICAL_GAIN      : 2.4989e-006        
VERTICAL_OFFSET    : 1.6500e-002        
MAX_VALUE          : 3.0578e+004        
MIN_VALUE          : 1.4827e+004        
NOMINAL_BITS       : 16                 
NOM_SUBARRAY_COUNT : 1                  
HORIZ_INTERVAL     : 4.0000e-010        
HORIZ_OFFSET       : -2.00000000e-007   
PIXEL_OFFSET       : -2.10000000e-007   
VERTUNIT           : Unit Name = V
HORUNIT            : Unit Name = S
HORIZ_UNCERTAINTY  : 1.0000e-012        
TRIGGER_TIME       : Date = APR 17, 2024, Time = 19:33:32.853298883
ACQ_DURATION       : 1.0049e+001        
RECORD_TYPE        : single_sweep       
PROCESSING_DONE    : no_processing      
RESERVED5          : 0                  
RIS_SWEEPS         : 1                  
TIMEBASE           : 200_ns/div         
VERT_COUPLING      : DC_50_Ohms         
PROBE_ATT          : 1.0000e+000        
FIXED_VERT_GAIN    : 5_mV/div           
BANDWIDTH_LIMIT    : off                
VERTICAL_VERNIER   : 1.0000e+000        
ACQ_VERT_OFFSET    : 0.0000e+000        
WAVE_SOURCE        : UNKNOWN            
"
0.000502
0.000492
0.000507
0.000485
0.000500
0.000480
0.000482
0.000482
0.000495
0.000447
0.000455
0.000462
0.000455
0.000507
0.000460
0.000457
0.000497
0.000485
0.000490
0.000485
0.000495
0.000492
0.000487
0.000480
0.000510
0.000482
0.000505
0.000512
0.000495
0.000465
0.000462
0.000455
0.000512
0.000482
0.000467
0.000445
0.000422
0.000437
0.000485
0.000492
0.000460
0.000475
0.000492
0.000465
0.000510
0.000495
0.000505
0.000475
0.000520
0.000485
0.000502
0.000500
0.000495
0.000467
0.000480
0.000502
0.000502
0.000457
0.000512
0.000492
0.000447
0.000457
0.000495
0.000480
0.000465
0.000490
0.000495
0.000472
0.000480
0.000535
0.000507
0.000517
0.000512
0.000485
0.000522
0.000510
0.000482
0.000482
0.000487
0.000507
0.000477
0.000462
0.000490
0.000460
0.000470
0.000487
0.000505
0.000475
0.000470
0.000477
0.000462
0.000502
0.000487
0.000490
0.000490
0.000485
0.000490
0.000490
0.000517
0.000512
0.000500
0.000485
0.000490
0.000462
0.000470
0.000480
0.000475
0.000475
0.000480
0.000470
0.000467
0.000477
0.000485
0.000495
0.000507
0.000490
0.000507
0.000492
0.000492
0.000497
0.000480
0.000495
0.000495
0.000470
0.000477
0.000450
0.000462
0.000475
0.000445
0.000462
0.000485
0.000460
0.000492
0.000475
0.000477
0.000480
0.000500
0.000492
0.000500
0.000490
0.000497
0.000487
0.000500
0.000462
0.000485
0.000482
0.000465
0.000470
0.000500
0.000447
0.000455
0.000482
0.000462
0.000460
0.000485
0.000467
0.000485
0.000457
0.000512
0.000462
0.000457
0.000475
0.000507
0.000485
0.000485
0.000520
0.000492
0.000502
0.000487
0.000457
0.000460
0.000452
0.000462
0.000467
0.000445
0.000460
0.000467
0.000450
0.000465
0.000482
0.000460
0.000470
0.000527
0.000485
0.000477
0.000505
0.000477
0.000480
0.000507
0.000507
0.000480
0.000495
0.000505
0.000490
0.000487
0.000490
0.000495
0.000447
0.000505
0.000505
0.000500
0.000495
0.000507
0.000465
0.000485
0.000502
0.000500
0.000465
0.000505
0.000505
0.000497
0.000477
0.000525
0.000492
0.000485
0.000475
0.000485
0.000490
0.000472
0.000467
0.000457
0.000457
0.000490
0.000467
0.000460
0.000462
0.000472
0.000445
0.000482
0.000477
0.000475
0.000467
0.000502
0.000487
0.000487
0.000497
0.000497
0.000495
0.000470
0.000492
0.000495
0.000482
0.000500
0.000477
0.000485
0.000500
0.000492
0.000490
0.000485
0.000480
0.000480
0.000475
0.000470
0.000485
0.000482
0.000475
0.000502
0.000465
0.000465
0.000465
0.000467
0.000480
0.000472
0.000450
0.000470
0.000465
0.000470
0.000460
0.000460
0.000460
0.000455
0.000460
0.000477
0.000480
0.000475
0.000470
0.000470
0.000465
0.000477
0.000482
0.000477
0.000480
0.000490
0.000480
0.000482
0.000472
0.000487
0.000475
0.000502
0.000460
0.000472
0.000480
0.000465
0.000490
0.000487
0.000465
0.000482
0.000467
0.000490
0.000472
0.000470
0.000492
0.000507
0.000450
0.000465
0.000492
0.000447
0.000477
0.000502
0.000472
0.000495
0.000487
0.000500
0.000520
0.000487
0.000500
0.000495
0.000482
0.000492
0.000475
0.000472
0.000472
0.000487
0.000472
0.000510
0.000510
0.000482
0.000495
0.000487
0.000512
0.000512
0.000492
0.000512
0.000490
0.000447
0.000490
0.000472
0.000470
0.000500
0.000455
0.000502
0.000460
0.000480
0.000505
0.000465
0.000480
0.000492
0.000495
0.000515
0.000475
0.000490
0.000450
0.000482
0.000470
0.000470
0.000462
0.000480
0.000462
0.000477
0.000480
0.000497
0.000460
0.000475
0.000480
0.000457
0.000487
0.000517
0.000472
0.000495
0.000462
0.000487
0.000475
0.000492
0.000500
0.000475
0.000465
0.000515
0.000477
0.000485
0.000502
0.000475
0.000460
0.000467
0.000465
0.000477
0.000467
0.000472
0.000470
0.000482
0.000460
0.000480
0.000465
0.000475
0.000480
0.000487
0.000482
0.000487
0.000480
0.000465
0.000487
0.000492
0.000460
0.000467
0.000480
0.000477
0.000467
0.000457
0.000450
0.000480
0.000432
0.000490
0.000457
0.000482
0.000470
0.000480
0.000460
0.000470
0.000452
0.000437
0.000467
0.000462
0.000457
0.000475
0.000502
0.000497
0.000485
0.000515
0.000502
0.000527
0.000522
0.000520
0.000495
0.000442
0.000415
0.000435
0.000435
0.000470
0.000517
0.000512
0.000537
0.000515
0.000480
0.000490
0.000477
0.000507
0.000530
0.000535
0.000507
0.000490
0.000435
0.000432
0.000450
0.000495
0.000532
0.000597
0.000617
0.000590
0.000507
0.000450
0.000445
0.000375
0.000422
0.000480
0.000497
0.000515
0.000512
0.000497
0.000502
0.000512
0.000545
0.000517
0.000492
0.000462
0.000395
0.000372
0.000357
0.000402
0.000455
0.000532
0.000540
0.000532
0.000515
0.000495
0.000470
0.000467
0.000480
0.000540
0.000560
0.000567
0.000542
0.000502
0.000407
0.000372
0.000387
0.000412
0.000485
0.000472
0.000487
0.000470
0.000427
0.000430
0.000452
0.000550
0.000595
0.000595
0.000547
0.000470
0.000350
0.000302
0.000300
0.000330
0.000357
0.000347
0.000352
0.000387
0.000415
0.000520
0.000640
0.000722
0.000772
0.000712
0.000645
0.000562
0.000562
0.000582
0.000567
0.000585
0.000525
0.000495
0.000415
0.000397
0.000387
0.000427
0.000442
0.000415
0.000390
0.000405
0.000357
0.000407
0.000412
0.000450
0.000545
0.000587
0.000640
0.000652
0.000630
0.000595
0.000520
0.000442
0.000312
0.000200
0.000135
0.000122
0.000190
0.000255
0.000387
0.000495
0.000610
0.000700
0.000767
0.000815
0.000870
0.000870
0.000862
0.000800
0.000727
0.000577
0.000382
0.000212
0.000025
-0.000177
-0.000332
-0.000532
-0.000775
-0.001045
-0.001389
-0.001747
-0.002069
-0.002421
-0.002664
-0.002896
-0.003164
-0.003339
-0.003511
-0.003646
-0.003728
-0.003768
-0.003688
-0.003531
-0.003341
-0.003106
-0.002849
-0.002601
-0.002394
-0.002261
-0.002112
-0.001989
-0.001862
-0.001757
-0.001664
-0.001629
-0.001674
-0.001814
-0.001869
-0.001889
-0.001867
-0.001747
-0.001652
-0.001579
-0.001522
-0.001462
-0.001472
-0.001449
-0.001377
-0.001277
-0.001154
-0.001052
-0.000980
-0.000925
-0.000912
-0.000900
-0.000915
-0.000920
-0.000885
-0.000852
-0.000760
-0.000700
-0.000695
-0.000705
-0.000680
-0.000687
-0.000705
-0.000727
-0.000707
-0.000757
-0.000805
-0.000805
-0.000770
-0.000680
-0.000570
-0.000320
-0.000172
-0.000085
0.000007
0.000025
-0.000048
-0.000175
-0.000345
-0.000530
-0.000692
-0.000840
-0.000932
-0.000967
-0.000885
-0.000742
-0.000597
-0.000355
-0.000230
-0.000072
-0.000005
0.000092
0.000157
0.000215
0.000202
0.000120
0.000007
-0.000180
-0.000352
-0.000500
-0.000587
-0.000615
-0.000560
-0.000490
-0.000375
-0.000230
-0.000170
-0.000053
-0.000013
0.000052
0.000047
0.000052
0.000032
-0.000013
-0.000070
-0.000130
-0.000197
-0.000267
-0.000325
-0.000340
-0.000335
-0.000342
-0.000280
-0.000217
-0.000190
-0.000110
-0.000050
0.000047
0.000082
0.000117
0.000122
0.000105
0.000020
-0.000020
-0.000087
-0.000120
-0.000160
-0.000192
-0.000217
-0.000187
-0.000190
-0.000117
-0.000050
0.000015
0.000022
0.000022
0.000007
-0.000015
-0.000048
-0.000040
-0.000030
-0.000020
-0.000008
0.000032
0.000055
0.000092
0.000160
0.000190
0.000185
0.000195
0.000117
0.000092
0.000062
0.000045
0.000037
0.000020
0.000062
0.000107
0.000085
0.000115
0.000142
0.000155
0.000165
0.000175
0.000170
0.000145
0.000097
0.000090
0.000045
0.000020
-0.000038
-0.000075
-0.000155
-0.000170
-0.000152
-0.000077
-0.000008
0.000082
0.000187
0.000210
0.000230
0.000272
0.000257
0.000267
0.000282
0.000245
0.000225
0.000195
0.000170
0.000145
0.000150
0.000155
0.000150
0.000172
0.000142
0.000107
0.000072
0.000065
0.000077
0.000035
0.000067
0.000132
0.000167
0.000225
0.000250
0.000255
0.000262
0.000262
0.000225
0.000217
0.000182
0.000127
0.000077
0.000030
-0.000003
-0.000013
-0.000015
0.000002
0.000062
0.000070
0.000117
0.000235
0.000275
0.000307
0.000370
0.000402
0.000405
0.000405
0.000347
0.000315
0.000265
0.000190
0.000130
0.000040
-0.000020
-0.000053
-0.000053
-0.000035
-0.000003
0.000090
0.000187
0.000272
0.000370
0.000392
0.000450
0.000440
0.000455
0.000415
0.000345
0.000232
0.000112
0.000017
-0.000053
-0.000070
-0.000080
-0.000000
0.000032
0.000117
0.000177
0.000285
0.000360
0.000410
0.000440
0.000455
0.000455
0.000417
0.000357
0.000315
0.000235
0.000180
0.000160
0.000140
0.000155
0.000165
0.000172
0.000205
0.000170
0.000227
0.000217
0.000267
0.000250
0.000242
0.000265
0.000247
0.000262
0.000265
0.000250
0.000272
0.000295
0.000292
0.000342
0.000332
0.000337
0.000325
0.000332
0.000352
0.000317
0.000257
0.000257
0.000225
0.000200
0.000192
0.000225
0.000252
0.000300
0.000335
0.000347
0.000365
0.000370
0.000367
0.000327
0.000322
0.000252
0.000232
0.000185
0.000140
0.000107
0.000130
0.000152
0.000190
0.000235
0.000307
0.000347
0.000387
0.000367
0.000407
0.000352
0.000352
0.000287
0.000242
0.000192
0.000152
0.000127
0.000097
0.000120
0.000167
0.000202
0.000295
0.000350
0.000407
0.000447
0.000465
0.000432
0.000415
0.000397
0.000375
0.000310
0.000265
0.000197
0.000160
0.000147
0.000160
0.000202
0.000255
0.000282
0.000335
0.000355
0.000400
0.000372
0.000335
0.000312
0.000285
0.000242
0.000185
0.000155
0.000115
0.000097
0.000127
0.000205
0.000275
0.000307
0.000412
0.000445
0.000462
0.000492
0.000455
0.000417
0.000415
0.000317
0.000270
0.000205
0.000190
0.000110
0.000132
0.000155
0.000182
0.000227
0.000265
0.000317
0.000387
0.000442
0.000460
0.000442
0.000457
0.000417
0.000402
0.000350
0.000327
0.000280
0.000270
0.000275
0.000305
0.000297
0.000322
0.000370
0.000355
0.000362
0.000407
0.000417
0.000412
0.000390
0.000370
0.000345
0.000285
0.000255
0.000235
0.000215
0.000215
0.000262
0.000290
0.000307
0.000385
0.000390
0.000370
0.000407
0.000370
0.000317
0.000337
0.000322
0.000287
0.000287
0.000290
0.000277
0.000280
0.000315
0.000335
0.000355
0.000390
0.000430
0.000405
0.000427
0.000442
0.000382
0.000352
0.000335
0.000300
0.000255
0.000282
0.000257
0.000260
0.000245
0.000285
0.000312
0.000330
0.000365
0.000400
0.000377
0.000397
0.000387
0.000360
0.000322
0.000282
0.000270
0.000240
0.000227
0.000242
0.000202
0.000250
0.000260
0.000327
0.000345
0.000402
0.000420
0.000462
0.000457
0.000457
0.000420
0.000392
0.000385
0.000350
0.000287
0.000300
0.000290
0.000290
0.000280
0.000335
0.000337
0.000385
0.000382
0.000410
0.000415
0.000450
0.000407
0.000400
0.000387
0.000367
0.000345
0.000305
0.000292
0.000305
0.000280
0.000317
0.000312
0.000375
0.000350
0.000362
0.000370
0.000395
0.000335
0.000347
0.000320
0.000315
0.000295
0.000285
0.000315
0.000312
0.000302
0.000350
0.000345
0.000375
0.000387
0.000412
0.000427
0.000440
0.000387
0.000372
0.000362
0.000330
0.000280
0.000295
0.000260
0.000245
0.000242
0.000257
0.000297
0.000305
0.000362
0.000395
0.000422
0.000450
0.000440
0.000435
0.000435
0.000427
0.000395
0.000352
0.000320
0.000325
0.000322
0.000287
0.000295
0.000325
0.000312
0.000375
0.000395
0.000385
0.000397
0.000415
0.000405
0.000375
0.000357
0.000382
0.000330
0.000317
0.000340
0.000312
0.000337
0.000332
0.000332
0.000367
0.000375
0.000415
0.000410
0.000412
0.000422
0.000447
0.000390
0.000400
0.000365
0.000350
0.000352
0.000385
0.000360
0.000382
0.000422
0.000412
0.000405
0.000447
0.000442
0.000407
0.000405
0.000427
0.000395
0.000362
0.000360
0.000350
0.000330
0.000315
0.000342
0.000350
0.000322
0.000370
0.000367
0.000345
0.000385
0.000412
0.000405
0.000430
0.000410
0.000380
0.000352
0.000352
0.000330
0.000302
0.000315
0.000340
0.000310
0.000347
0.000360
0.000380
0.000347
0.000397
0.000405
0.000412
0.000390
0.000382
0.000357
0.000380
0.000372
0.000385
0.000350
0.000377
0.000372
0.000342
0.000385
0.000392
0.000380
0.000415
0.000405
0.000400
0.000397
0.000415
0.000402
0.000365
0.000340
0.000335
0.000317
0.000325
0.000292
0.000350
0.000355
0.000365
0.000395
0.000382
0.000415
0.000400
0.000377
0.000395
0.000362
0.000370
0.000340
0.000360
0.000362
0.000340
0.000355
0.000390
0.000390
0.000390
0.000390
0.000425
0.000407
0.000412
0.000410
0.000427
0.000405
0.000430
0.000422
0.000405
0.000405
0.000390
0.000392
0.000390
0.000377
0.000395
0.000387
0.000385
0.000382
0.000387
0.000372
0.000362
0.000360
0.000357
0.000340
0.000312
0.000315
0.000330
0.000302
0.000335
0.000340
0.000372
0.000382
0.000422
0.000430
0.000430
0.000407
0.000410
0.000407
0.000440
0.000392
0.000407
0.000387
0.000392
0.000357
0.000367
0.000327
0.000347
0.000360
0.000342
0.000355
0.000357
0.000377
0.000380
0.000350
0.000372
0.000370
0.000390
0.000392
0.000410
0.000410
0.000370
0.000382
0.000390
0.000397
0.000420
0.000412
0.000422
0.000410
0.000417
0.000387
0.000397
0.000370
0.000392
0.000372
0.000370
0.000390
0.000377
0.000365
0.000387
0.000417
0.000397
0.000417
0.000442
0.000432
0.000440
0.000440
0.000415
0.000402
0.000385
0.000415
0.000420
0.000377
0.000395
0.000352
0.000342
0.000375
0.000342
0.000350
0.000395
0.000390
0.000415
0.000412
0.000402
0.000432
0.000415
0.000407
0.000447
0.000365
0.000392
0.000385
0.000402
0.000390
0.000390
0.000370
0.000397
0.000397
0.000402
0.000397
0.000382
0.000372
0.000392
0.000362
0.000392
0.000380
0.000390
0.000405
0.000382
0.000360
0.000375
0.000372
0.000397
0.000390
0.000400
0.000425
0.000442
0.000445
0.000455
0.000442
0.000427
0.000432
0.000402
0.000415
0.000425
0.000387
0.000375
0.000370
0.000390
0.000380
0.000370
0.000355
0.000362
0.000387
0.000400
0.000390
0.000395
0.000392
0.000442
0.000430
0.000442
0.000420
0.000375
0.000375
0.000392
0.000382
0.000390
0.000362
0.000400
0.000392
0.000417
0.000400
0.000385
0.000402
0.000360
0.000380
0.000407
0.000420
0.000410
0.000417
0.000422
0.000425
0.000410
0.000385
0.000382
0.000385
0.000375
0.000365
0.000385
0.000372
0.000392
0.000385
0.000392
0.000395
0.000417
0.000395
0.000412
0.000407
0.000407
0.000397
0.000405
0.000410
0.000442
0.000425
0.000450
0.000440
0.000442
0.000422
0.000417
0.000417
0.000402
0.000387
0.000387
0.000392
0.000410
0.000377
0.000367
0.000380
0.000382
0.000405
0.000410
0.000422
0.000410
0.000417
0.000425
0.000440
0.000440
0.000437
0.000445
0.000420
0.000402
0.000395
0.000422
0.000382
0.000395
0.000405
0.000420
0.000425
0.000422
0.000422
0.000462
0.000425
0.000420
0.000422
0.000420
0.000432
0.000430
0.000395
0.000410
0.000387
0.000385
0.000372
0.000387
0.000385
0.000375
0.000347
0.000387
0.000380
0.000387
0.000375
0.000420
0.000420
0.000402
0.000435
0.000400
0.000422
0.000420
0.000382
0.000417
0.000405
0.000415
0.000420
0.000430
0.000430
0.000417
0.000422
0.000410
0.000380
0.000410
0.000377
0.000427
0.000387
0.000407
0.000422
0.000390
0.000412
0.000415
0.000410
0.000422
0.000430
0.000455
0.000420
0.000442
0.000432
0.000440
0.000407
0.000412
0.000385
0.000375
0.000387
0.000397
0.000382
0.000425
0.000405
0.000410
0.000392
0.000420
0.000395
0.000430
0.000420
0.000442
0.000432
0.000437
0.000452
0.000417
0.000440
0.000427
0.000420
0.000430
0.000445
0.000440
0.000427
0.000430
0.000420
0.000422
0.000415
0.000437
0.000420
0.000452
0.000455
0.000435
0.000420
0.000425
0.000397
0.000407
0.000407
0.000402
0.000405
0.000420
0.000412
0.000445
0.000450
0.000440
0.000462
0.000452
0.000432
0.000455
0.000422
0.000420
0.000392
0.000415
0.000370
0.000415
0.000417
0.000387
0.000397
0.000372
0.000380
0.000395
0.000405
0.000432
0.000402
0.000412
0.000415
0.000435
0.000425
0.000437
0.000440
0.000430
0.000425
0.000402
0.000412
0.000415
0.000412
0.000392
0.000382
0.000390
0.000395
0.000385
0.000375
0.000380
0.000382
0.000345
0.000350
0.000375
0.000392
0.000417
0.000430
0.000447
0.000410
0.000437
0.000422
0.000432
0.000435
0.000432
0.000420
0.000460
0.000445
0.000432
0.000425
0.000440
0.000425
0.000450
0.000442
0.000430
0.000447
0.000415
0.000425
0.000430
0.000422
0.000437
0.000425
0.000427
0.000440
0.000420
0.000400
0.000427
0.000400
0.000390
0.000407
0.000452
0.000437
0.000422
0.000415
0.000435
0.000445
0.000407
0.000410
0.000420
0.000405
0.000402
0.000417
0.000397
0.000402
0.000405
0.000380
0.000402
0.000415
0.000417
0.000412
0.000445
0.000447
0.000427
0.000432
0.000477
0.000432
0.000445
0.000470
0.000450
0.000410
0.000397
0.000435
0.000422
0.000415
0.000420
0.000417
0.000417
0.000425
0.000427
0.000395
0.000460
0.000415
0.000402
0.000440
0.000432
0.000427
0.000435
0.000437
0.000420
0.000422
0.000455
0.000445
0.000420
0.000395
0.000407
0.000407
0.000410
0.000417
0.000407
0.000407
0.000435
0.000422
0.000437
0.000472
0.000462
0.000475
0.000450
0.000450
0.000437
0.000412
0.000437
0.000397
0.000410
0.000417
0.000390
0.000407
0.000410
0.000405
0.000405
0.000377
0.000410
0.000412
0.000420
0.000417
0.000402
0.000412
0.000440
0.000427
0.000445
0.000445
0.000465
0.000430
0.000415
0.000415
0.000410
0.000400
0.000407
0.000395
0.000392
0.000425
0.000402
0.000385
0.000410
0.000380
0.000387
0.000410
0.000402
0.000437
0.000427
0.000417
0.000437
0.000430
0.000432
0.000462
0.000442
0.000442
0.000457
0.000470
0.000450
0.000435
0.000442
0.000460
0.000430
0.000415
0.000452
0.000417
0.000435
0.000430
0.000435
0.000405
0.000430
0.000422
0.000427
0.000465
0.000492
0.000465
0.000467
0.000480
0.000465
0.000437
0.000440
0.000425
0.000415
0.000410
0.000415
0.000395
0.000405
0.000410
0.000402
0.000382
0.000415
0.000390
0.000397
0.000415
0.000422
0.000415
0.000402
0.000437
0.000420
0.000425
0.000447
0.000425
0.000437
0.000420
0.000427
0.000407
0.000435
0.000432
0.000442
0.000400
0.000402
0.000452
0.000432
0.000412
0.000460
0.000420
0.000420
0.000450
0.000447
0.000450
0.000445
0.000455
0.000467
0.000467
0.000472
0.000440
0.000452
0.000472
0.000475
0.000430
0.000477
0.000450
0.000417
0.000417
0.000445
0.000420
0.000432
0.000432
0.000450
0.000430
0.000427
0.000432
0.000432
0.000402
0.000450
0.000455
0.000435
0.000445
0.000472
0.000445
0.000472
0.000447
0.000432
0.000432
0.000442
0.000442
0.000440
0.000450
0.000437
0.000432
0.000460
0.000442
0.000452
0.000425
0.000440
0.000442
0.000420
0.000417
0.000445
0.000420
0.000420
0.000452
0.000422
0.000405
0.000420
0.000402
0.000442
0.000455
0.000450
0.000440
0.000450
0.000470
0.000450
0.000430
0.000440
0.000440
0.000422
0.000400
0.000405
0.000375
0.000392
0.000390
0.000395
0.000407
0.000427
0.000402
0.000437
0.000430
0.000435
0.000432
0.000455
0.000437
0.000430
0.000420
0.000442
0.000442
0.000480
0.000435
0.000457
0.000437
0.000447
0.000450
0.000475
0.000487
0.000485
0.000462
0.000482
0.000485
0.000470
0.000440
0.000440
0.000420
0.000457
0.000437
0.000442
0.000425
0.000395
0.000417
0.000430
0.000430
0.000427
0.000427
0.000440
0.000430
0.000445
0.000422
0.000442
0.000427
0.000422
0.000412
0.000447
0.000437
0.000407
0.000402
0.000457
0.000415
0.000427
0.000437
0.000452
0.000410
0.000420
0.000425
0.000412
0.000415
0.000447
0.000410
0.000447
0.000447
0.000447
0.000435
0.000435
0.000437
0.000442
0.000445
0.000462
0.000447
0.000445
0.000445
0.000475
0.000435
0.000445
0.000457
0.000437
0.000417
0.000430
0.000427
0.000437
0.000447
0.000432
0.000427
0.000465
0.000435
0.000450
0.000432
0.000477
0.000452
0.000427
0.000425
0.000447
0.000435
0.000450
0.000437
0.000442
0.000457
0.000460
0.000452
0.000467
0.000465
0.000460
0.000462
0.000462
0.000465
0.000452
0.000425
0.000480
0.000447
0.000447
0.000417
0.000450
0.000407
0.000415
0.000435
0.000430
0.000427
0.000452
0.000440
0.000432
0.000442
0.000455
0.000432
0.000467
0.000437
0.000455
0.000465
0.000465
0.000462
0.000437
0.000420
0.000442
0.000430
0.000432
0.000402
0.000412
0.000420
0.000440
0.000440
0.000452
0.000442
0.000445
0.000427
0.000465
0.000420
0.000445
0.000425
0.000445
0.000447
0.000427
0.000420
0.000430
0.000437
0.000420
0.000422
0.000425
0.000435
0.000437
0.000417
0.000440
0.000430
0.000407
0.000392
0.000430
0.000415
0.000440
0.000415
0.000442
0.000422
0.000422
0.000400
0.000432
0.000412
0.000387
0.000445
0.000450
0.000430
0.000472
0.000435
0.000462
0.000455
0.000432
0.000455
0.000465
0.000440
0.000437
0.000430
0.000432
0.000410
0.000442
0.000420
0.000455
0.000435
0.000445
0.000455
0.000425
0.000415
0.000447
0.000452
0.000465
0.000460
0.000452
0.000445
0.000455
0.000465
0.000432
0.000417
0.000450
0.000422
0.000447
0.000450
0.000470
0.000430
0.000450
0.000457
0.000442
0.000445
0.000470
0.000412
0.000432
0.000425
0.000452
0.000440
0.000452
0.000467
0.000462
0.000460
0.000450
0.000455
0.000457
0.000430
0.000442
0.000432
0.000412
0.000460
0.000450
0.000427
0.000472
0.000427
0.000442
0.000470
0.000445
0.000427
0.000477
0.000437
0.000430
0.000430
0.000455
0.000452
0.000425
0.000430
0.000457
0.000450
0.000412
0.000415
0.000447
0.000420
0.000435
0.000407
0.000407
0.000385
0.000430
0.000397
0.000412
0.000417
0.000425
0.000417
0.000417
0.000440
0.000427
0.000432
0.000450
0.000445
0.000442
0.000465
0.000467
0.000460
0.000465
0.000465
0.000487
0.000445
0.000445
0.000445
0.000442
0.000460
0.000457
0.000450
0.000477
0.000452
0.000455
0.000465
0.000455
0.000455
0.000455
0.000430
0.000445
0.000420
0.000447
0.000430
0.000427
0.000447
0.000432
0.000445
0.000460
0.000437
0.000465
0.000467
0.000452
0.000445
0.000435
0.000427
0.000435
0.000452
0.000417
0.000415
0.000425
0.000430
0.000435
0.000447
0.000452
0.000432
0.000427
0.000460
0.000430
0.000400
0.000430
0.000425
0.000455
0.000445
0.000455
0.000455
0.000475
0.000470
0.000495
0.000465
0.000495
0.000460
0.000427
0.000420
0.000410
0.000412
0.000400
0.000447
0.000435
0.000415
0.000462
0.000457
0.000430
0.000440
0.000462
0.000457
0.000447
0.000447
0.000432
0.000442
0.000462
0.000435
0.000417
0.000425
0.000442
0.000412
0.000395
0.000422
0.000427
0.000432
0.000467
0.000425
0.000455
0.000450
0.000467
0.000462
0.000475
0.000470
0.000465
0.000450
0.000460
0.000482
0.000467
0.000482
0.000507
0.000495
0.000472
0.000472
0.000460
0.000435
0.000437
0.000442
0.000412
0.000402
0.000422
0.000410
0.000422
0.000410
0.000430
0.000452
0.000452
0.000465
0.000455
0.000485
0.000507
0.000490
0.000455
0.000457
0.000450
0.000425
0.000482
0.000485
0.000440
0.000440
0.000405
0.000425
0.000412
0.000425
0.000445
0.000445
0.000442
0.000455
0.000447
0.000447
0.000450
0.000440
0.000450
0.000452
0.000455
0.000435
0.000450
0.000465
0.000422
0.000437
0.000450
0.000427
0.000442
0.000452
0.000450
0.000457
0.000450
0.000415
0.000447
0.000437
0.000452
0.000452
0.000465
0.000467
0.000465
0.000455
0.000437
0.000447
0.000455
0.000430
0.000430
0.000460
0.000432
0.000447
0.000440
0.000437
0.000457
0.000457
0.000435
0.000455
0.000450
0.000437
0.000422
0.000415
0.000427
0.000427
0.000450
0.000475
0.000482
0.000472
0.000467
0.000470
0.000495
0.000480
0.000467
0.000442
0.000427
0.000435
0.000410
0.000407
0.000412
0.000420
0.000420
0.000407
0.000447
0.000422
0.000450
0.000447
0.000445
0.000432
0.000447
0.000462
0.000445
0.000457
0.000465
0.000470
0.000482
0.000445
0.000472
0.000472
0.000502
0.000500
0.000477
0.000490
0.000477
0.000452
0.000465
0.000445
0.000452
0.000435
0.000427
0.000427
0.000440
0.000437
0.000447
0.000450
0.000460
0.000440
0.000452
0.000440
0.000455
0.000447
0.000447
0.000470
0.000462
0.000455
0.000470
0.000470
0.000427
0.000437
0.000477
0.000445
0.000467
0.000460
0.000467
0.000457
0.000482
0.000470
0.000465
0.000465
0.000485
0.000475
0.000450
0.000462
0.000470
0.000440
0.000452
0.000477
0.000435
0.000420
0.000457
0.000462
0.000435
0.000457
0.000460
0.000437
0.000457
0.000465
0.000460
0.000490
0.000477
0.000480
0.000462
0.000475
0.000462
0.000430
0.000435
0.000445
0.000452
0.000425
0.000475
0.000467
0.000457
0.000470
0.000450
0.000465
0.000452
0.000447
0.000470
0.000450
0.000445
0.000452
0.000420
0.000460
0.000510
0.000455
0.000490
0.000475
0.000450
0.000430
0.000455
0.000430
0.000437
0.000455
0.000487
0.000465
0.000482
0.000480
0.000480
0.000457
0.000440
0.000442
0.000420
0.000457
0.000465
0.000435
0.000437
0.000435
0.000442
0.000435
0.000462
0.000472
0.000477
0.000462
0.000455
0.000460
0.000447
0.000422
0.000455
0.000435
0.000462
0.000462
0.000450
0.000445
0.000457
0.000440
0.000435
0.000450
0.000447
0.000447
0.000457
0.000455
0.000445
0.000445
0.000457
0.000435
0.000460
0.000477
0.000457
0.000435
0.000430
0.000422
0.000442
0.000437
0.000452
0.000440
0.000442
0.000475
0.000472
0.000465
0.000450
0.000435
0.000447
0.000430
0.000455
0.000435
0.000462
0.000457
0.000435
0.000465
0.000460
0.000465
0.000437
0.000435
0.000450
0.000437
0.000450
0.000462
0.000457
0.000460
0.000455
0.000417
0.000470
0.000455
0.000465
0.000460
0.000477
0.000445
0.000447
0.000447
0.000450
0.000437
0.000447
0.000450
0.000472
0.000425
0.000445
0.000432
0.000467
0.000445
0.000475
0.000465
0.000452
0.000437
0.000430
0.000435
0.000440
0.000457
0.000470
0.000445
0.000490
0.000467
0.000445
0.000457
0.000477
0.000460
0.000475
0.000472
0.000475
0.000445
0.000470
0.000445
0.000452
0.000457
0.000447
0.000437
0.000460
0.000465
0.000447
0.000455
0.000480
0.000462
0.000460
0.000445
0.000492
0.000447
0.000445
0.000460
0.000435
0.000412
0.000432
0.000430
0.000400
0.000417
0.000420
0.000407
0.000430
0.000420
0.000432
0.000442
0.000490
0.000447
0.000457
0.000450
0.000490
0.000450
0.000455
0.000485
0.000445
0.000430
0.000452
0.000465
0.000447
0.000457
0.000462
0.000440
0.000467
0.000430
0.000470
0.000447
0.000472
0.000465
0.000432
0.000447
0.000445
0.000452
0.000440
0.000465
0.000467
0.000457
0.000462
0.000460
0.000465
0.000442
0.000465
0.000450
0.000460
0.000447
0.000477
0.000435
0.000452
0.000475
0.000452
0.000440
0.000467
0.000430
0.000465
0.000450
0.000470
0.000447
0.000442
0.000470
0.000450
0.000455
0.000450
0.000457
0.000450
0.000430
0.000445
0.000417
0.000440
0.000460
0.000415
0.000422
0.000460
0.000452
0.000440
0.000477
0.000467
0.000460
0.000465
0.000480
0.000457
0.000450
0.000477
0.000462
0.000465
0.000452
0.000450
0.000425
0.000437
0.000462
0.000450
0.000427
0.000452
0.000430
0.000460
0.000465
0.000425
0.000450
0.000455
0.000457
0.000465
0.000442
0.000472
0.000427
0.000462
0.000442
0.000452
0.000457
0.000482
0.000470
0.000447
0.000455
0.000452
0.000435
0.000447
0.000457
0.000465
0.000440
0.000455
0.000445
0.000440
0.000442
0.000447
0.000462
0.000477
0.000477
0.000480
0.000472
0.000465
0.000465
0.000455
0.000447
0.000477
0.000445
0.000455
0.000475
0.000432
0.000435
0.000462
0.000445
0.000455
0.000447
0.000440
0.000427
0.000450
0.000432
0.000445
0.000415
0.000467
0.000450
0.000447
0.000465
0.000497
0.000452
0.000455
0.000485
0.000437
0.000435
0.000465
0.000452
0.000442
0.000452
0.000472
0.000442
0.000445
0.000462
0.000457
0.000425
0.000437
0.000457
0.000452
0.000470
0.000477
0.000427
0.000410
0.000440
0.000442
0.000427
0.000470
0.000447
0.000465
0.000447
0.000467
0.000455
0.000462
0.000485
0.000452
0.000425
0.000442
0.000437
0.000412
0.000420
0.000422
0.000407
0.000417
0.000430
0.000430
0.000455
0.000472
0.000485
0.000495
0.000492
0.000500
0.000457
0.000462
0.000480
0.000462
0.000435
0.000460
0.000460
0.000435
0.000440
0.000462
0.000442
0.000462
0.000470
0.000482
0.000462
0.000467
0.000505
0.000492
0.000472
0.000500
0.000465
0.000472
0.000485
0.000492
0.000450
0.000460
0.000462
0.000452
0.000467
0.000472
0.000450
0.000470
0.000465
0.000447
0.000422
0.000435
0.000450
0.000435
0.000445
0.000450
0.000430
0.000465
0.000435
0.000452
0.000437
0.000452
0.000435
0.000430
0.000445
0.000460
0.000462
0.000445
0.000445
0.000427
0.000407
0.000420
0.000430
0.000452
0.000457
0.000480
0.000467
0.000477
0.000480
0.000472
0.000432
0.000465
0.000462
0.000450
0.000470
0.000472
0.000452
0.000462
0.000465
0.000462
0.000452
0.000477
0.000457
0.000447
0.000490
0.000472
0.000465
0.000480
0.000472
0.000467
0.000450
0.000457
0.000437
0.000450
0.000435
0.000472
0.000432
0.000467
0.000462
0.000442
0.000447
0.000455
0.000445
0.000447
0.000460
0.000477
0.000447
0.000482
0.000440
0.000435
0.000450
0.000462
0.000447
0.000432
0.000455
0.000447
0.000442
0.000452
0.000472
0.000475
0.000452
0.000490
0.000480
0.000495
0.000477
0.000502
0.000475
0.000490
0.000467
0.000475
0.000445
0.000457
0.000435
0.000420
0.000452
0.000480
0.000452
0.000450
0.000477
0.000437
0.000472
0.000477
0.000455
0.000475
0.000460
0.000470
0.000455
0.000482
0.000495
0.000452
0.000465
0.000470
0.000457
0.000467
0.000470
0.000482
0.000460
0.000472
0.000455
0.000477
0.000455
0.000480
0.000472
0.000487
0.000465
0.000492
0.000455
0.000472
0.000480
0.000440
0.000442
0.000470
0.000450
0.000457
0.000457
0.000470
0.000445
0.000455
0.000465
0.000455
0.000432
0.000462
0.000455
0.000445
0.000437
0.000457
0.000452
0.000462
0.000497
0.000507
0.000480
0.000515
0.000515
0.000482
0.000467
0.000507
0.000465
0.000505
0.000502
0.000465
0.000462
0.000465
0.000450
0.000432
0.000425
0.000435
0.000417
0.000425
0.000442
0.000445
0.000415
0.000472
0.000472
0.000462
0.000485
0.000525
0.000475
0.000467
0.000480
0.000497
0.000472
0.000492
0.000462
0.000455
0.000427
0.000445
0.000430
0.000437
0.000430
0.000447
0.000425
0.000467
0.000472
0.000442
0.000460
0.000495
0.000455
0.000475
0.000487
0.000472
0.000455
0.000487
0.000475
0.000467
0.000450
0.000480
0.000450
0.000445
0.000452
0.000465
0.000435
0.000465
0.000460
0.000447
0.000452
0.000480
0.000470
0.000467
0.000465
0.000475
0.000460
0.000462
0.000467
0.000467
0.000465
0.000470
0.000467
0.000452
0.000467
0.000455
0.000455
0.000467
0.000457
0.000445
0.000437
0.000472
0.000435
0.000435
0.000485
0.000457
0.000472
0.000472
0.000482
0.000475
0.000470
0.000502
0.000477
0.000465
0.000457
0.000495
0.000452
0.000480
0.000465
0.000452
0.000415
0.000430
0.000420
0.000410
0.000455
0.000445
0.000437
0.000447
0.000442
0.000450
0.000452
0.000467
0.000477
0.000495
0.000490
0.000500
0.000495
0.000512
0.000477
0.000490
0.000477
0.000490
0.000442
0.000435
0.000457
0.000452
0.000422
0.000450
0.000445
0.000412
0.000450
0.000462
0.000472
0.000500
0.000487
0.000505
0.000497
0.000515
0.000490
0.000487
0.000502
0.000485
0.000470
0.000467
0.000475
0.000477
0.000440
0.000450
0.000477
0.000425
0.000457
0.000450
0.000432
0.000450
0.000495
0.000455
0.000472
0.000502
0.000485
0.000495
0.000472
0.000482
0.000475
0.000477
0.000470
0.000495
0.000442
0.000455
0.000460
0.000447
0.000467
0.000492
0.000457
0.000465
0.000487
0.000460
0.000455
0.000477
0.000477
0.000480
0.000470
0.000497
0.000500
0.000465
0.000492
0.000487
0.000452
0.000490
0.000477
0.000420
0.000447
0.000445
0.000427
0.000442
0.000422
0.000440
0.000420
0.000435
0.000467
0.000415
0.000432
0.000455
0.000465
0.000440
0.000435
0.000465
0.000445
0.000487
0.000487
0.000467
0.000455
0.000477
0.000475
0.000485
0.000472
0.000492
0.000470
0.000465
0.000460
0.000460
0.000437
0.000460
0.000450
0.000442
0.000447
0.000462
0.000445
0.000462
0.000502
0.000485
0.000490
0.000495
0.000460
0.000477
0.000470
0.000452
0.000450
0.000475
0.000460
0.000457
0.000460
0.000462
0.000475
0.000457
0.000460
0.000460
0.000427
0.000445
0.000430
0.000417
0.000415
0.000415
0.000397
0.000412
0.000417
0.000452
0.000435
0.000480
0.000482
0.000470
0.000480
0.000500
0.000475
0.000480
0.000505
0.000490
0.000462
0.000460
0.000460
0.000447
0.000460
0.000465
0.000447
0.000447
0.000460
0.000465
0.000475
0.000470
0.000462
0.000482
0.000475
0.000485
0.000470
0.000450
0.000475
0.000472
0.000470
0.000472
0.000490
0.000485
0.000472
0.000502
0.000477
0.000457
0.000467
0.000447
0.000455
0.000495
0.000467
0.000467
0.000460
0.000465
0.000470
0.000467
0.000505
0.000492
0.000467
0.000487
0.000455
0.000450
0.000452
0.000460
0.000445
0.000430
0.000457
0.000440
0.000435
0.000462
0.000432
0.000457
0.000435
0.000460
0.000437
0.000460
0.000467
0.000475
0.000435
0.000442
0.000450
0.000440
0.000442
0.000480
0.000467
0.000452
0.000442
0.000440
0.000447
0.000465
0.000462
0.000450
0.000447
0.000460
0.000435
0.000450
0.000447
0.000487
0.000465
0.000480
0.000477
0.000462
0.000472
0.000465
0.000487
0.000475
0.000515
0.000480
0.000482
0.000467
0.000447
0.000447
0.000445
0.000450
0.000452
0.000452
0.000480
0.000507
0.000457
0.000482
0.000520
0.000497
0.000482
0.000515
0.000487
0.000492
0.000490
0.000472
0.000475
0.000490
0.000475
0.000460
0.000467
0.000500
0.000445
0.000465
0.000472
0.000482
0.000445
0.000495
0.000470
0.000452
0.000457
0.000467
0.000447
0.000472
0.000447
0.000462
0.000465
0.000452
0.000467
0.000455
0.000447
0.000472
0.000440
0.000452
0.000467
0.000485
0.000462
0.000480
0.000482
0.000465
0.000477
0.000442
0.000475
0.000455
0.000437
0.000485
0.000490
0.000480
0.000472
0.000502
0.000475
0.000490
0.000472
0.000487
0.000480
0.000480
0.000467
0.000465
0.000450
0.000435
0.000432
0.000452
0.000442
0.000452
0.000447
0.000445
0.000440
0.000480
0.000470
0.000457
0.000460
0.000492
0.000455
0.000470
0.000480
0.000487
0.000465
0.000482
0.000477
0.000490
0.000482
0.000477
0.000450
0.000465
0.000445
0.000432
0.000437
0.000450
0.000440
0.000432
0.000452
0.000460
0.000467
0.000475
0.000475
0.000465
0.000475
0.000515
0.000467
0.000477
0.000475
0.000490
0.000462
0.000470
0.000470
0.000450
0.000442
0.000480
0.000455
0.000477
0.000455
0.000462
0.000457
0.000447
0.000477
0.000467
0.000457
0.000477
0.000480
0.000450
0.000482
0.000475
0.000447
0.000502
0.000475
0.000497
0.000470
0.000475
0.000437
0.000457
0.000450
0.000470
0.000462
0.000460
0.000487
0.000460
0.000445
0.000487
0.000450
0.000480
0.000495
0.000492
0.000487
0.000510
0.000490
0.000482
0.000437
0.000472
0.000460
0.000462
0.000465
0.000507
0.000455
0.000445
0.000447
0.000472
0.000465
0.000472
0.000465
0.000457
0.000467
0.000467
0.000457
0.000477
0.000490
0.000487
0.000475
0.000472
0.000477
0.000502
0.000460
0.000482
0.000455
0.000447
0.000465
0.000465
0.000412
0.000435
0.000455
0.000405
0.000432
0.000415
0.000407
0.000427
0.000432
0.000455
0.000447
0.000450
0.000482
0.000440
0.000445
0.000477
0.000422
0.000465
0.000467
0.000487
0.000477
0.000487
0.000470
0.000477
0.000465
0.000457
0.000417
0.000447
0.000415
0.000430
0.000460
0.000477
0.000460
0.000452
0.000462
0.000477
0.000470
0.000455
0.000485
0.000475
0.000472
0.000502
0.000485
0.000480
0.000475
0.000472
0.000450
0.000457
0.000440
0.000452
0.000447
0.000450
0.000447
0.000470
0.000475
0.000475
0.000460
0.000485
0.000502
0.000462
0.000465
0.000500
0.000475
0.000487
0.000480
0.000485
0.000465
0.000480
0.000480
0.000482
0.000447
0.000465
0.000417
0.000435
0.000432
0.000470
0.000425
0.000457
0.000437
0.000457
0.000460
0.000492
0.000477
0.000457
0.000485
0.000485
0.000465
0.000475
0.000475
0.000485
0.000480
0.000487
0.000467
0.000477
0.000455
0.000482
0.000472
0.000470
0.000462
0.000470
0.000457
0.000495
0.000447
0.000460
0.000472
0.000462
0.000460
0.000510
0.000537
0.000485
0.000472
0.000485
0.000475
0.000447
0.000432
0.000447
0.000462
0.000457
0.000470
0.000477
0.000450
0.000455
0.000445
0.000455
0.000462
0.000485
0.000480
0.000502
0.000472
0.000472
0.000465
0.000500
0.000487
0.000497
0.000475
0.000500
0.000487
0.000480
0.000472
0.000460
0.000447
0.000465
0.000475
0.000455
0.000437
0.000470
0.000430
0.000440
0.000455
0.000450
0.000462
0.000472
0.000467
0.000447
0.000435
0.000447
0.000440
0.000442
0.000457
0.000502
0.000480
0.000502
0.000495
0.000462
0.000490
0.000472
0.000460
0.000462
0.000472
0.000460
0.000462
0.000450
0.000430
0.000445
0.000430
0.000477
0.000442
0.000452
0.000480
0.000470
0.000442
0.000470
0.000492
0.000460
0.000460
0.000510
0.000490
0.000485
0.000520
0.000465
0.000492
0.000445
0.000442
0.000467
0.000447
0.000507
0.000457
0.000472
0.000485
0.000515
0.000477
0.000502
0.000512
0.000467
0.000485
0.000485
0.000450
0.000467
0.000457
0.000445
0.000452
0.000445
0.000462
0.000460
0.000467
0.000457
0.000445
0.000485
0.000490
0.000515
0.000475
0.000495
0.000472
0.000470
0.000477
0.000482
0.000452
0.000455
0.000485
0.000462
0.000437
0.000502
0.000472
0.000482
0.000477
0.000472
0.000477
0.000470
0.000447
0.000465
0.000465
0.000480
0.000450
0.000452
0.000460
0.000460
0.000442
0.000455
0.000467
0.000455
0.000465
0.000445
0.000467
0.000487
0.000462
0.000472
0.000462
0.000447
0.000455
0.000470
0.000437
0.000482
0.000465
0.000472
0.000462
0.000487
0.000460
0.000472
0.000477
0.000470
0.000482
0.000472
0.000457
0.000467
0.000467
0.000480
0.000482
0.000480
0.000465
0.000450
0.000462
0.000487
0.000472
0.000450
0.000477
0.000465
0.000460
0.000465
0.000472
0.000495
0.000482
0.000497
0.000465
0.000495
0.000475
0.000500
0.000487
0.000465
0.000492
0.000480
0.000477
0.000497
0.000492
0.000490
0.000490
0.000507
0.000477
0.000485
0.000492
0.000495
0.000495
0.000530
0.000492
0.000472
0.000477
0.000490
0.000445
0.000440
0.000455
0.000477
0.000457
0.000462
0.000462
0.000480
0.000485
0.000530
0.000487
0.000497
0.000507
0.000457
0.000477
0.000507
0.000477
0.000487
0.000490
0.000505
0.000475
0.000487
0.000497
0.000452
0.000435
0.000472
0.000452
0.000457
0.000452
0.000460
0.000442
0.000452
0.000450
0.000460
0.000480
0.000500
0.000500
0.000487
0.000490
0.000500
0.000500
0.000477
0.000500
0.000500
0.000432
0.000467
0.000472
0.000447
0.000455
0.000465
0.000460
0.000462
0.000460
0.000452
0.000447
0.000477
0.000457
0.000465
0.000487
0.000480
0.000457
0.000482
0.000467
0.000482
0.000462
0.000470
0.000472
0.000487
0.000492
0.000530
0.000477
0.000505
0.000495
0.000477
0.000500
0.000457
0.000492
0.000482
0.000465
0.000515
0.000480
0.000470
0.000482
0.000485
0.000455
0.000470
0.000485
0.000485
0.000485
0.000500
0.000470
0.000480
0.000480
0.000457
0.000470
0.000465
0.000502
0.000465
0.000477
0.000475
0.000487
0.000502
0.000475
0.000500
0.000480
0.000470
0.000485
0.000482
0.000490
0.000507
0.000482
0.000472
0.000462
0.000492
0.000465
0.000475
0.000482
0.000457
0.000465
0.000490
0.000467
0.000445
0.000490
0.000480
0.000470
0.000487
0.000475
0.000472
0.000455
0.000507
0.000472
0.000495
0.000502
0.000502
0.000490
0.000507
0.000475
0.000460
0.000470
0.000480
0.000477
0.000502
0.000477
0.000502
0.000470
0.000500
0.000492
0.000467
0.000492
0.000495
0.000482
0.000490
0.000500
0.000485
0.000490
0.000470
0.000472
0.000490
0.000480
0.000515
0.000480
0.000487
0.000470
0.000502
0.000465
0.000465
0.000500
0.000462
0.000462
0.000470
0.000460
0.000475
0.000475
0.000485
0.000485
0.000450
0.000482
0.000467
0.000492
0.000487
0.000505
0.000490
0.000507
0.000512
0.000475
0.000475
0.000472
0.000475
0.000435
0.000492
0.000447
0.000455
0.000487
0.000445
0.000472
0.000475
0.000467
0.000487
0.000472
0.000477
0.000440
0.000445
0.000447
0.000482
0.000457
0.000472
0.000430
0.000457
0.000477
0.000475
0.000470
0.000452
0.000475
0.000482
0.000465
0.000512
0.000497
0.000477
0.000485
0.000472
0.000460
0.000472
0.000505
0.000495
0.000450
0.000495
0.000460
0.000467
0.000467
0.000477
0.000475
0.000455
0.000465
0.000472
0.000490
0.000477
0.000472
0.000475
0.000442
0.000502
0.000470
0.000482
0.000500
0.000505
0.000475
0.000467
0.000502
0.000467
0.000472
0.000500
0.000450
0.000487
0.000477
0.000500
0.000495
0.000490
0.000490
0.000455
0.000500
0.000502
0.000472
0.000452
0.000467
0.000465
0.000442
0.000457
0.000487
0.000462
0.000475
0.000495
0.000467
0.000480
0.000460
0.000457
0.000460
0.000462
0.000477
0.000477
0.000475
0.000480
0.000460
0.000442
0.000467
0.000475
0.000457
0.000497
0.000505
0.000467
0.000442
0.000447
0.000447
0.000455
0.000467
0.000470
0.000465
0.000492
0.000465
0.000512
0.000465
0.000480
0.000482
0.000507
0.000490
0.000507
0.000482
0.000480
0.000510
0.000467
0.000460
0.000507
0.000467
0.000475
0.000477
0.000460
0.000460
0.000432
0.000457
0.000470
0.000465
0.000500
0.000470
0.000502
0.000485
0.000477
0.000477
0.000487
0.000525
0.000505
0.000500
0.000537
0.000497
0.000502
0.000452
0.000497
0.000442
0.000457
0.000467
0.000482
0.000455
0.000467
0.000452
0.000460
0.000485
0.000467
0.000452
0.000480
0.000492
0.000475
0.000480
0.000520
0.000510
0.000485
0.000472
0.000475
0.000445
0.000415
0.000430
0.000422
0.000405
0.000442
0.000440
0.000442
0.000432
0.000460
0.000445
0.000477
0.000482
0.000500
0.000482
0.000500
0.000497
0.000495
0.000485
0.000517
0.000485
0.000495
0.000467
0.000455
0.000450
0.000455
0.000482
0.000452
0.000450
0.000485
0.000452
0.000460
0.000447
0.000470
0.000482
0.000470
0.000487
0.000477
0.000465
0.000482
0.000457
0.000472
0.000435
0.000450
0.000422
0.000485
0.000470
0.000482
0.000500
0.000475
0.000477
0.000487
0.000500
0.000485
0.000482
0.000487
0.000470
0.000467
0.000437
0.000435
0.000422
0.000452
0.000455
0.000445
0.000460
0.000477
0.000492
0.000517
0.000485
0.000510
0.000495
0.000510
0.000517
0.000510
0.000497
0.000492
0.000502
0.000472
0.000460
0.000485
0.000455
0.000445
0.000435
0.000432
0.000425
0.000467
0.000440
0.000447
0.000485
0.000495
0.000472
0.000517
0.000507
0.000505
0.000487
0.000542
0.000492
0.000492
0.000497
0.000480
0.000450
0.000467
0.000480
0.000457
0.000447
0.000452
0.000467
0.000462
0.000480
0.000497
0.000490
0.000492
0.000497
0.000500
0.000492
0.000492
0.000477
0.000490
0.000502
0.000510
0.000492
0.000492
0.000497
0.000460
0.000462
0.000487
0.000447
0.000437
0.000457
0.000472
0.000455
0.000465
0.000477
0.000482
0.000480
0.000505
0.000485
0.000492
0.000485
0.000510
0.000467
0.000492
0.000502
0.000477
0.000475
0.000497
0.000460
0.000457
0.000480
0.000472
0.000457
0.000420
0.000485
0.000440
0.000432
0.000487
0.000475
0.000470
0.000485
0.000492
0.000487
0.000502
0.000525
0.000492
0.000477
0.000502
0.000477
0.000467
0.000460
0.000492
0.000472
0.000455
0.000470
0.000450
0.000437
0.000470
0.000455
0.000462
0.000472
0.000490
0.000482
0.000477
0.000502
0.000520
0.000512
0.000520
0.000492
0.000525
0.000505
0.000505
0.000487
0.000487
0.000497
0.000485
0.000452
0.000470
0.000445
0.000450
0.000470
0.000447
0.000435
0.000447
0.000462
0.000460
0.000465
0.000490
0.000477
0.000507
0.000500
0.000507
0.000492
0.000477
0.000502
0.000495
0.000465
0.000497
0.000465
0.000487
0.000480
0.000455
0.000442
0.000477
0.000455
0.000467
0.000465
0.000462
0.000477
0.000467
0.000457
0.000487
0.000502
0.000497
0.000525
0.000507
0.000480
0.000502
0.000502
0.000485
0.000497
0.000465
0.000472
0.000482
0.000450
0.000462
0.000475
0.000490
0.000475
0.000460
0.000472
0.000492
0.000467
0.000500
0.000500
0.000477
0.000507
0.000510
0.000495
0.000487
0.000505
0.000495
0.000460
0.000460
0.000485
0.000480
0.000462
0.000490
0.000447
0.000470
0.000465
0.000460
0.000460
0.000475
0.000487
0.000455
0.000482
0.000492
0.000485
0.000492
0.000510
0.000517
0.000480
0.000487
0.000505
0.000490
0.000487
0.000522
0.000495
0.000480
0.000482
0.000450
0.000452
0.000452
0.000472
0.000445
0.000440
0.000472
0.000480
0.000450
0.000457
0.000495
0.000465
0.000470
0.000472
0.000475
0.000477
0.000495
0.000480
0.000475
0.000475
0.000475
0.000482
0.000480
0.000495
0.000455
0.000442
0.000462
0.000475
0.000460
0.000470
0.000480
0.000465
0.000480
0.000477
0.000467
0.000475
0.000495
0.000515
0.000500
0.000492
0.000497
0.000477
0.000460
0.000480
0.000500
0.000462
0.000467
0.000505
0.000470
0.000467
0.000475
0.000430
0.000452
0.000437
0.000450
0.000445
0.000485
0.000455
0.000490
0.000480
0.000485
0.000492
0.000480
0.000492
0.000505
0.000487
0.000470
0.000477
0.000467
0.000435
0.000475
0.000455
0.000445
0.000460
0.000480
0.000457
0.000465
0.000467
0.000490
0.000475
0.000485
0.000475
0.000485
0.000482
0.000490
0.000460
0.000482
0.000480
0.000497
0.000485
0.000487
0.000485
0.000472
0.000485
0.000475
0.000470
0.000460
0.000445
0.000427
0.000452
0.000452
0.000435
0.000462
0.000410
0.000447
0.000460
0.000475
0.000492
0.000467
0.000470
0.000492
0.000497
0.000487
0.000480
0.000482
0.000495
0.000470
0.000447
0.000452
0.000440
0.000440
0.000427
0.000440
0.000440
0.000452
0.000467
0.000485
0.000487
0.000497
0.000497
0.000495
0.000507
0.000482
0.000495
0.000470
0.000492
0.000505
0.000507
0.000472
0.000465
0.000450
0.000432
0.000442
0.000462
0.000477
0.000460
0.000472
0.000475
0.000490
0.000480
0.000502
0.000467
0.000517
0.000485
0.000507
0.000497
0.000510
0.000507
0.000500
0.000485
0.000485
0.000475
0.000462
0.000467
0.000477
0.000427
0.000467
0.000435
0.000465
0.000452
0.000495
0.000465
0.000477
0.000480
0.000490
0.000492
0.000532
0.000502
0.000497
0.000495
0.000525
0.000485
0.000490
0.000505
0.000482
0.000460
0.000477
0.000465
0.000452
0.000450
0.000472
0.000452
0.000457
0.000482
0.000460
0.000480
0.000475
0.000475
0.000490
0.000510
0.000522
0.000490
0.000497
0.000507
0.000482
0.000475
0.000495
0.000497
0.000467
0.000490
0.000500
0.000462
0.000482
0.000460
0.000445
0.000467
0.000460
0.000477
0.000502
0.000495
0.000500
0.000480
0.000505
0.000507
0.000510
0.000507
0.000515
0.000490
0.000467
0.000467
0.000485
0.000482
0.000465
0.000472
0.000472
0.000435
0.000447
0.000420
0.000437
0.000452
0.000467
0.000437
0.000482
0.000482
0.000502
0.000462
0.000510
0.000497
0.000502
0.000485
0.000512
0.000485
0.000502
0.000472
0.000500
0.000470
0.000492
0.000460
0.000487
0.000475
0.000512
0.000487
0.000472
0.000485
0.000477
0.000477
0.000517
0.000495
0.000487
0.000477
0.000497
0.000477
0.000497
0.000512
0.000485
0.000470
0.000480
0.000447
0.000477
0.000452
0.000455
0.000480
0.000452
0.000467
0.000480
0.000462
0.000465
0.000472
0.000482
0.000482
0.000502
0.000492
0.000510
0.000502
0.000497
0.000480
0.000497
0.000490
0.000495
0.000490
0.000475
0.000477
0.000447
0.000460
0.000480
0.000462
0.000487
0.000470
0.000465
0.000447
0.000462
0.000422
0.000442
0.000440
0.000445
0.000455
0.000460
0.000455
0.000472
0.000490
0.000515
0.000490
0.000517
0.000507
0.000497
0.000475
0.000522
0.000497
0.000480
0.000490
0.000485
0.000467
0.000497
0.000465
0.000452
0.000462
0.000442
0.000437
0.000455
0.000470
0.000465
0.000467
0.000435
0.000482
0.000477
0.000462
0.000495
0.000495
0.000492
0.000465
0.000507
0.000432
0.000475
0.000460
0.000447
0.000457
0.000460
0.000455
0.000450
0.000460
0.000467
0.000482
0.000472
0.000457
0.000477
0.000472
0.000490
0.000495
0.000500
0.000517
0.000495
0.000500
0.000502
0.000487
0.000512
0.000465
0.000502
0.000492
0.000480
0.000480
0.000472
0.000455
0.000477
0.000460
0.000462
0.000462
0.000487
0.000472
0.000525
0.000500
0.000510
0.000500
0.000510
0.000490
0.000515
0.000500
0.000500
0.000482
0.000490
0.000467
0.000497
0.000457
0.000500
0.000457
0.000460
0.000465
0.000470
0.000465
0.000467
0.000427
0.000492
0.000472
0.000492
0.000510
0.000490
0.000475
0.000492
0.000472
0.000472
0.000487
0.000500
0.000475
0.000482
0.000487
0.000487
0.000460
t0(sec) = 0.000000E+0
dt(sec) = 4.000000E-10
F4:INSP "
DESCRIPTOR_NAME    : WAVEDESC           
TEMPLATE_NAME      : LECROY_2_3         
COMM_TYPE          : word               
COMM_ORDER         : HIFIRST            
WAVE_DESCRIPTOR    : 346                
USER_TEXT          : 0                  
RES_DESC1          : 0                  
TRIGTIME_ARRAY     : 0                  
RIS_TIME_ARRAY     : 0                  
RES_ARRAY1         : 0                  
WAVE_ARRAY_1       : 9932               
WAVE_ARRAY_2       : 0                  
RES_ARRAY2         : 0                  
RES_ARRAY3         : 0                  
INSTRUMENT_NAME    : LECROYHDO6104      
INSTRUMENT_NUMBER  : 6308               
TRACE_LABEL        :                    
RESERVED1          : 4966               
RESERVED2          : 0                  
WAVE_ARRAY_COUNT   : 4966               
PNTS_PER_SCREEN    : 5000               
FIRST_VALID_PNT    : 0                  
LAST_VALID_PNT     : 4965               
FIRST_POINT        : 0                  
SPARSING_FACTOR    : 1                  
SEGMENT_INDEX      : 0                  
SUBARRAY_COUNT     : 1                  
SWEEPS_PER_ACQ     : 200                
POINTS_PER_PAIR    : 0                  
PAIR_OFFSET        : 0                  
VERTICAL_GAIN      : 2.6238e-006        
VERTICAL_OFFSET    : 6.8001e-002        
MAX_VALUE          : 2.7366e+004        
MIN_VALUE          : 1.2377e+004        
NOMINAL_BITS       : 16                 
NOM_SUBARRAY_COUNT : 1                  
HORIZ_INTERVAL     : 4.0000e-010        
HORIZ_OFFSET       : -2.00000000e-007   
PIXEL_OFFSET       : -2.14000000e-007   
VERTUNIT           : Unit Name = V
HORUNIT            : Unit Name = S
HORIZ_UNCERTAINTY  : 1.0000e-012        
TRIGGER_TIME       : Date = APR 17, 2024, Time = 19:33:32.853298883
ACQ_DURATION       : 1.0049e+001        
RECORD_TYPE        : single_sweep       
PROCESSING_DONE    : no_processing      
RESERVED5          : 0                  
RIS_SWEEPS         : 1                  
TIMEBASE           : 200_ns/div         
VERT_COUPLING      : DC_50_Ohms         
PROBE_ATT          : 1.0000e+000        
FIXED_VERT_GAIN    : 5_mV/div           
BANDWIDTH_LIMIT    : off                
VERTICAL_VERNIER   : 1.0000e+000        
ACQ_VERT_OFFSET    : 0.0000e+000        
WAVE_SOURCE        : UNKNOWN            
"
0.000619
0.000661
0.000653
0.000643
0.000643
0.000611
0.000577
0.000598
0.000624
0.000648
0.000656
0.000651
0.000656
0.000643
0.000664
0.000643
0.000658
0.000632
0.000648
0.000658
0.000590
0.000635
0.000653
0.000611
0.000540
0.000546
0.000588
0.000598
0.000590
0.000575
0.000590
0.000609
0.000635
0.000640
0.000661
0.000638
0.000643
0.000638
0.000661
0.000635
0.000635
0.000606
0.000582
0.000622
0.000614
0.000619
0.000622
0.000622
0.000674
0.000669
0.000658
0.000666
0.000661
0.000656
0.000635
0.000656
0.000651
0.000666
0.000645
0.000627
0.000638
0.000635
0.000669
0.000630
0.000603
0.000575
0.000619
0.000630
0.000653
0.000648
0.000664
0.000617
0.000601
0.000606
0.000632
0.000614
0.000619
0.000624
0.000666
0.000638
0.000611
0.000611
0.000590
0.000601
0.000635
0.000635
0.000630
0.000630
0.000645
0.000645
0.000651
0.000666
0.000651
0.000640
0.000640
0.000632
0.000630
0.000609
0.000603
0.000569
0.000603
0.000585
0.000572
0.000590
0.000614
0.000640
0.000630
0.000630
0.000669
0.000651
0.000624
0.000638
0.000635
0.000619
0.000624
0.000632
0.000624
0.000596
0.000651
0.000645
0.000630
0.000638
0.000603
0.000606
0.000630
0.000630
0.000638
0.000624
0.000627
0.000546
0.000569
0.000582
0.000622
0.000627
0.000635
0.000656
0.000653
0.000635
0.000672
0.000677
0.000658
0.000614
0.000548
0.000561
0.000577
0.000609
0.000582
0.000611
0.000630
0.000656
0.000651
0.000653
0.000645
0.000630
0.000653
0.000669
0.000666
0.000630
0.000653
0.000656
0.000666
0.000653
0.000651
0.000653
0.000635
0.000651
0.000624
0.000648
0.000614
0.000606
0.000627
0.000630
0.000635
0.000632
0.000630
0.000651
0.000632
0.000617
0.000640
0.000656
0.000674
0.000669
0.000666
0.000632
0.000645
0.000653
0.000672
0.000661
0.000630
0.000619
0.000627
0.000648
0.000627
0.000645
0.000651
0.000619
0.000619
0.000609
0.000627
0.000638
0.000622
0.000630
0.000635
0.000635
0.000679
0.000651
0.000632
0.000619
0.000651
0.000601
0.000630
0.000648
0.000575
0.000611
0.000622
0.000653
0.000632
0.000635
0.000656
0.000648
0.000638
0.000638
0.000651
0.000640
0.000638
0.000630
0.000661
0.000656
0.000661
0.000630
0.000624
0.000638
0.000627
0.000609
0.000645
0.000630
0.000656
0.000648
0.000638
0.000677
0.000640
0.000666
0.000653
0.000645
0.000672
0.000601
0.000603
0.000606
0.000632
0.000630
0.000617
0.000627
0.000653
0.000619
0.000640
0.000653
0.000640
0.000651
0.000643
0.000664
0.000666
0.000661
0.000648
0.000648
0.000638
0.000638
0.000638
0.000611
0.000635
0.000598
0.000630
0.000648
0.000640
0.000606
0.000603
0.000635
0.000627
0.000661
0.000656
0.000661
0.000672
0.000674
0.000645
0.000640
0.000656
0.000645
0.000638
0.000653
0.000658
0.000622
0.000643
0.000674
0.000661
0.000635
0.000643
0.000648
0.000632
0.000624
0.000632
0.000656
0.000653
0.000640
0.000632
0.000651
0.000619
0.000585
0.000588
0.000606
0.000643
0.000638
0.000632
0.000658
0.000653
0.000653
0.000645
0.000672
0.000658
0.000611
0.000632
0.000593
0.000596
0.000577
0.000630
0.000635
0.000648
0.000648
0.000653
0.000658
0.000661
0.000638
0.000598
0.000614
0.000666
0.000635
0.000658
0.000664
0.000651
0.000640
0.000619
0.000627
0.000627
0.000617
0.000645
0.000645
0.000624
0.000598
0.000627
0.000648
0.000640
0.000645
0.000635
0.000661
0.000624
0.000622
0.000648
0.000611
0.000635
0.000648
0.000643
0.000658
0.000638
0.000640
0.000653
0.000666
0.000656
0.000666
0.000645
0.000653
0.000640
0.000651
0.000638
0.000653
0.000648
0.000635
0.000658
0.000630
0.000635
0.000609
0.000666
0.000658
0.000645
0.000643
0.000656
0.000619
0.000619
0.000603
0.000624
0.000614
0.000640
0.000617
0.000648
0.000648
0.000603
0.000624
0.000643
0.000638
0.000632
0.000632
0.000672
0.000658
0.000640
0.000653
0.000638
0.000653
0.000638
0.000656
0.000640
0.000666
0.000643
0.000648
0.000653
0.000648
0.000640
0.000630
0.000630
0.000596
0.000603
0.000622
0.000651
0.000643
0.000651
0.000624
0.000622
0.000606
0.000598
0.000543
0.000506
0.000496
0.000590
0.000622
0.000645
0.000711
0.000703
0.000648
0.000638
0.000653
0.000643
0.000601
0.000640
0.000661
0.000627
0.000577
0.000582
0.000585
0.000582
0.000666
0.000703
0.000679
0.000693
0.000645
0.000640
0.000632
0.000617
0.000603
0.000588
0.000580
0.000554
0.000527
0.000582
0.000632
0.000619
0.000693
0.000753
0.000708
0.000645
0.000543
0.000496
0.000483
0.000543
0.000635
0.000695
0.000761
0.000750
0.000685
0.000651
0.000640
0.000672
0.000729
0.000714
0.000651
0.000561
0.000477
0.000485
0.000498
0.000588
0.000627
0.000609
0.000572
0.000593
0.000622
0.000666
0.000758
0.000871
0.000874
0.000784
0.000609
0.000493
0.000433
0.000396
0.000399
0.000459
0.000462
0.000414
0.000383
0.000428
0.000496
0.000603
0.000740
0.000882
0.000921
0.000905
0.000837
0.000698
0.000677
0.000651
0.000658
0.000614
0.000543
0.000459
0.000349
0.000349
0.000443
0.000677
0.000853
0.000986
0.000968
0.000874
0.000782
0.000695
0.000700
0.000706
0.000669
0.000617
0.000556
0.000496
0.000459
0.000530
0.000643
0.000742
0.000700
0.000674
0.000658
0.000651
0.000619
0.000714
0.000779
0.000811
0.000748
0.000651
0.000454
0.000273
0.000029
-0.000307
-0.000766
-0.001566
-0.002847
-0.004041
-0.005127
-0.006428
-0.007696
-0.008766
-0.009976
-0.011928
-0.014205
-0.015439
-0.015483
-0.015743
-0.015892
-0.015557
-0.015927
-0.016462
-0.016234
-0.015829
-0.015145
-0.014140
-0.013235
-0.012560
-0.011983
-0.011823
-0.012172
-0.012621
-0.012424
-0.011421
-0.010815
-0.010808
-0.010548
-0.009968
-0.009926
-0.010146
-0.009944
-0.008892
-0.008063
-0.008039
-0.007824
-0.007473
-0.007887
-0.008415
-0.008045
-0.007425
-0.007418
-0.007533
-0.007381
-0.007428
-0.007504
-0.006838
-0.005998
-0.005867
-0.005875
-0.005521
-0.005547
-0.005578
-0.005051
-0.004770
-0.005164
-0.005486
-0.005326
-0.005203
-0.005434
-0.005662
-0.005778
-0.005775
-0.005649
-0.005140
-0.004479
-0.004209
-0.004154
-0.004140
-0.004230
-0.004602
-0.004896
-0.005122
-0.005542
-0.005898
-0.005555
-0.004760
-0.004405
-0.004531
-0.004581
-0.004193
-0.003917
-0.003708
-0.003356
-0.003107
-0.002991
-0.002928
-0.002878
-0.003319
-0.003828
-0.003946
-0.004159
-0.004238
-0.003847
-0.003385
-0.003070
-0.002808
-0.002745
-0.002642
-0.002718
-0.003046
-0.003172
-0.002918
-0.002776
-0.002637
-0.002506
-0.002448
-0.002508
-0.002566
-0.002348
-0.002351
-0.002697
-0.002569
-0.002264
-0.002653
-0.003311
-0.003230
-0.002653
-0.002243
-0.002068
-0.001690
-0.001517
-0.001648
-0.001666
-0.001538
-0.001824
-0.002222
-0.002065
-0.001866
-0.002186
-0.002574
-0.002579
-0.002527
-0.002763
-0.002794
-0.002448
-0.002180
-0.002246
-0.002522
-0.002621
-0.002317
-0.001944
-0.001816
-0.001894
-0.001921
-0.001952
-0.002002
-0.002104
-0.002173
-0.002377
-0.002461
-0.002270
-0.001910
-0.001884
-0.002175
-0.002238
-0.002220
-0.002228
-0.002039
-0.001671
-0.001456
-0.001776
-0.002107
-0.001973
-0.001690
-0.001496
-0.001488
-0.001734
-0.002034
-0.002007
-0.001779
-0.001784
-0.001981
-0.001810
-0.001698
-0.001831
-0.001719
-0.001325
-0.001273
-0.001748
-0.002272
-0.002532
-0.002501
-0.002427
-0.002409
-0.002188
-0.001713
-0.001459
-0.001535
-0.001414
-0.001094
-0.001136
-0.001396
-0.001325
-0.000908
-0.000735
-0.000842
-0.000945
-0.000924
-0.001076
-0.001244
-0.001288
-0.001485
-0.001648
-0.001485
-0.001191
-0.001204
-0.001218
-0.001225
-0.001294
-0.001207
-0.000960
-0.000884
-0.000926
-0.000827
-0.000756
-0.000882
-0.001123
-0.001288
-0.001532
-0.001593
-0.001391
-0.001220
-0.001265
-0.001155
-0.000976
-0.000848
-0.000798
-0.000722
-0.000575
-0.000701
-0.000987
-0.001073
-0.001149
-0.001212
-0.001317
-0.001422
-0.001467
-0.001485
-0.001378
-0.001165
-0.001013
-0.000942
-0.000732
-0.000606
-0.000464
-0.000514
-0.000685
-0.000903
-0.001160
-0.001262
-0.001212
-0.001341
-0.001254
-0.000895
-0.000653
-0.000745
-0.000832
-0.000890
-0.000863
-0.000811
-0.000890
-0.001092
-0.001113
-0.000994
-0.000790
-0.000693
-0.000798
-0.000905
-0.000945
-0.000958
-0.000955
-0.000945
-0.000953
-0.001015
-0.001036
-0.001068
-0.001076
-0.001107
-0.001097
-0.001047
-0.001105
-0.001223
-0.001194
-0.000987
-0.000777
-0.000680
-0.000674
-0.000698
-0.000884
-0.001002
-0.000816
-0.000643
-0.000709
-0.000703
-0.000496
-0.000409
-0.000564
-0.000577
-0.000499
-0.000564
-0.000651
-0.000559
-0.000467
-0.000533
-0.000559
-0.000457
-0.000548
-0.000785
-0.000766
-0.000527
-0.000475
-0.000593
-0.000808
-0.000890
-0.000761
-0.000682
-0.000688
-0.000653
-0.000688
-0.000695
-0.000485
-0.000399
-0.000674
-0.000887
-0.000714
-0.000488
-0.000533
-0.000548
-0.000485
-0.000583
-0.000709
-0.000682
-0.000703
-0.000792
-0.000842
-0.000792
-0.000874
-0.000916
-0.000758
-0.000409
-0.000137
0.000029
-0.000008
-0.000178
-0.000352
-0.000417
-0.000443
-0.000551
-0.000766
-0.000861
-0.000960
-0.001081
-0.001092
-0.001055
-0.001097
-0.000966
-0.000677
-0.000415
-0.000278
-0.000349
-0.000470
-0.000430
-0.000449
-0.000643
-0.000643
-0.000538
-0.000580
-0.000527
-0.000357
-0.000278
-0.000512
-0.000669
-0.000580
-0.000496
-0.000496
-0.000349
-0.000241
-0.000352
-0.000383
-0.000239
-0.000129
-0.000081
0.000008
0.000118
-0.000097
-0.000378
-0.000478
-0.000562
-0.000790
-0.000816
-0.000606
-0.000527
-0.000554
-0.000449
-0.000189
0.000003
0.000089
0.000016
-0.000315
-0.000593
-0.000588
-0.000417
-0.000496
-0.000758
-0.000643
-0.000357
-0.000349
-0.000430
-0.000315
-0.000257
-0.000270
-0.000189
-0.000055
-0.000089
-0.000207
-0.000349
-0.000488
-0.000606
-0.000769
-0.000837
-0.000771
-0.000630
-0.000520
-0.000283
-0.000092
-0.000039
-0.000171
-0.000158
0.000008
0.000026
-0.000113
-0.000173
-0.000304
-0.000478
-0.000499
-0.000291
-0.000194
-0.000255
-0.000210
-0.000223
-0.000436
-0.000543
-0.000407
-0.000299
-0.000451
-0.000506
-0.000423
-0.000344
-0.000357
-0.000402
-0.000509
-0.000567
-0.000646
-0.000714
-0.000703
-0.000653
-0.000577
-0.000569
-0.000575
-0.000548
-0.000449
-0.000247
-0.000047
0.000087
-0.000118
-0.000315
-0.000289
-0.000325
-0.000370
-0.000457
-0.000446
-0.000381
-0.000443
-0.000462
-0.000404
-0.000428
-0.000504
-0.000488
-0.000375
-0.000192
-0.000262
-0.000402
-0.000394
-0.000472
-0.000590
-0.000583
-0.000527
-0.000430
-0.000365
-0.000328
-0.000438
-0.000423
-0.000336
-0.000270
-0.000312
-0.000357
-0.000328
-0.000249
-0.000244
-0.000281
-0.000391
-0.000467
-0.000496
-0.000365
-0.000239
-0.000228
-0.000310
-0.000357
-0.000297
-0.000244
-0.000268
-0.000236
-0.000184
-0.000084
-0.000055
-0.000168
-0.000375
-0.000425
-0.000396
-0.000375
-0.000299
-0.000160
-0.000097
-0.000168
-0.000199
-0.000404
-0.000567
-0.000504
-0.000352
-0.000394
-0.000514
-0.000493
-0.000443
-0.000402
-0.000362
-0.000299
-0.000386
-0.000451
-0.000286
-0.000147
-0.000158
-0.000076
-0.000024
-0.000123
-0.000234
-0.000223
-0.000278
-0.000255
-0.000228
-0.000223
-0.000297
-0.000323
-0.000244
-0.000173
-0.000213
-0.000165
-0.000134
-0.000123
-0.000118
-0.000047
-0.000037
-0.000055
-0.000089
0.000026
0.000128
0.000060
-0.000058
0.000013
0.000031
-0.000050
-0.000063
0.000021
-0.000152
-0.000575
-0.000722
-0.000472
-0.000449
-0.000535
-0.000278
0.000039
-0.000034
-0.000110
0.000016
0.000063
-0.000102
-0.000186
-0.000160
-0.000181
-0.000297
-0.000247
-0.000037
-0.000076
-0.000362
-0.000354
-0.000362
-0.000449
-0.000367
-0.000147
-0.000215
-0.000315
-0.000121
0.000113
0.000034
-0.000013
0.000178
0.000294
0.000155
0.000115
0.000092
0.000021
-0.000032
-0.000029
0.000068
-0.000071
-0.000205
-0.000137
-0.000089
-0.000213
-0.000333
-0.000244
-0.000058
0.000089
0.000073
0.000039
-0.000045
-0.000042
-0.000034
-0.000060
-0.000079
0.000010
0.000039
0.000084
0.000191
0.000205
-0.000008
-0.000158
-0.000095
0.000060
-0.000018
-0.000150
-0.000286
-0.000475
-0.000485
-0.000299
-0.000199
-0.000252
-0.000097
0.000147
0.000239
0.000121
0.000071
0.000118
0.000142
0.000084
0.000079
0.000031
-0.000039
-0.000029
-0.000118
-0.000213
-0.000176
-0.000060
-0.000053
-0.000039
0.000052
0.000081
-0.000013
-0.000105
0.000016
0.000126
0.000079
0.000005
0.000155
0.000228
0.000139
-0.000008
-0.000079
-0.000165
-0.000365
-0.000255
0.000063
0.000142
-0.000011
0.000110
0.000128
0.000008
-0.000076
0.000045
0.000102
-0.000042
-0.000158
-0.000116
-0.000123
-0.000144
-0.000126
-0.000210
-0.000331
-0.000220
-0.000084
-0.000100
-0.000213
-0.000186
-0.000126
-0.000050
0.000081
0.000168
0.000165
0.000073
-0.000152
-0.000139
-0.000068
-0.000000
-0.000005
0.000097
0.000118
0.000089
0.000079
0.000068
-0.000018
-0.000147
-0.000050
0.000126
0.000029
-0.000100
-0.000000
0.000076
-0.000013
-0.000102
-0.000008
0.000094
0.000003
0.000034
0.000181
0.000304
0.000278
0.000184
0.000189
0.000110
-0.000034
-0.000110
-0.000147
-0.000236
-0.000152
0.000066
0.000294
0.000365
0.000228
0.000160
0.000026
-0.000066
-0.000139
-0.000202
-0.000223
-0.000158
-0.000045
-0.000034
-0.000034
0.000018
0.000060
-0.000005
-0.000047
0.000113
0.000220
0.000223
0.000189
0.000236
0.000205
0.000052
-0.000150
-0.000074
0.000068
-0.000005
-0.000100
-0.000071
0.000047
0.000005
0.000050
0.000126
-0.000003
-0.000255
-0.000320
-0.000213
-0.000197
-0.000252
-0.000239
-0.000118
-0.000013
0.000013
-0.000029
0.000029
0.000037
0.000008
-0.000016
0.000168
0.000380
0.000422
0.000299
0.000220
0.000139
0.000039
-0.000005
-0.000150
-0.000192
-0.000074
0.000026
0.000052
0.000139
0.000283
0.000278
0.000152
0.000105
0.000194
0.000170
0.000142
0.000262
0.000388
0.000199
0.000039
0.000003
-0.000137
-0.000289
-0.000226
0.000024
0.000157
0.000087
0.000008
0.000055
0.000039
-0.000097
-0.000100
-0.000071
-0.000021
0.000037
0.000207
0.000328
0.000341
0.000393
0.000451
0.000302
0.000126
0.000110
0.000173
0.000094
0.000076
0.000115
-0.000016
-0.000134
-0.000008
0.000115
0.000089
0.000081
0.000275
0.000262
0.000008
-0.000076
-0.000005
-0.000147
-0.000260
-0.000118
0.000081
-0.000016
-0.000029
0.000094
0.000094
-0.000013
0.000055
0.000107
0.000107
0.000149
0.000289
0.000283
0.000160
0.000068
-0.000021
-0.000134
-0.000168
-0.000113
-0.000158
-0.000320
-0.000310
-0.000192
-0.000178
-0.000228
-0.000197
-0.000076
-0.000220
-0.000318
-0.000058
0.000184
0.000194
0.000152
0.000268
0.000178
0.000050
0.000063
0.000210
0.000210
0.000066
-0.000024
-0.000089
-0.000071
-0.000013
0.000087
0.000071
-0.000000
0.000163
0.000178
0.000152
0.000252
0.000357
0.000367
0.000254
0.000275
0.000310
0.000231
0.000194
0.000184
0.000155
0.000055
0.000170
0.000220
0.000128
0.000110
0.000131
0.000039
-0.000058
-0.000005
0.000029
-0.000011
0.000042
0.000128
0.000199
0.000181
0.000202
0.000142
0.000089
0.000139
0.000252
0.000247
0.000163
0.000081
0.000013
-0.000097
-0.000165
0.000010
0.000191
0.000215
0.000102
0.000003
0.000029
0.000066
0.000068
0.000060
0.000092
0.000126
0.000207
0.000212
0.000157
0.000128
0.000176
0.000152
0.000105
0.000073
0.000097
0.000142
0.000121
0.000100
0.000071
0.000060
0.000121
0.000136
0.000184
0.000165
0.000107
0.000115
0.000121
0.000018
-0.000005
0.000191
0.000281
0.000115
0.000005
0.000071
0.000010
-0.000158
-0.000100
-0.000081
-0.000126
-0.000131
0.000026
0.000079
0.000018
0.000055
0.000107
0.000097
0.000113
0.000066
0.000068
0.000092
0.000144
0.000205
0.000205
0.000191
0.000121
-0.000008
-0.000131
-0.000039
0.000016
-0.000029
0.000047
0.000045
-0.000105
-0.000121
0.000008
0.000073
-0.000000
0.000092
0.000270
0.000228
0.000215
0.000354
0.000378
0.000181
0.000189
0.000312
0.000323
0.000228
0.000294
0.000362
0.000375
0.000375
0.000451
0.000391
0.000260
0.000226
0.000275
0.000302
0.000312
0.000328
0.000241
0.000126
0.000102
0.000126
0.000115
0.000055
0.000113
0.000168
0.000147
0.000134
0.000155
0.000152
0.000239
0.000320
0.000380
0.000417
0.000341
0.000220
-0.000018
-0.000220
-0.000176
0.000003
0.000050
0.000060
0.000236
0.000333
0.000315
0.000262
0.000270
0.000241
0.000289
0.000359
0.000380
0.000294
0.000273
0.000304
0.000254
0.000152
0.000092
0.000013
-0.000003
0.000052
0.000113
0.000155
0.000194
0.000273
0.000362
0.000359
0.000412
0.000404
0.000370
0.000191
0.000089
0.000142
0.000178
0.000105
0.000105
0.000231
0.000320
0.000262
0.000165
0.000142
0.000134
0.000184
0.000325
0.000320
0.000239
0.000236
0.000220
0.000128
0.000024
0.000094
0.000100
0.000121
0.000194
0.000328
0.000365
0.000178
-0.000013
-0.000055
0.000037
0.000016
-0.000084
0.000066
0.000236
0.000270
0.000281
0.000338
0.000359
0.000268
0.000244
0.000325
0.000304
0.000241
0.000281
0.000312
0.000270
0.000315
0.000393
0.000354
0.000168
0.000010
-0.000005
0.000045
0.000060
0.000128
0.000115
0.000136
0.000296
0.000336
0.000283
0.000236
0.000281
0.000289
0.000170
0.000018
-0.000026
-0.000000
0.000052
0.000163
0.000241
0.000262
0.000199
0.000010
-0.000053
0.000066
0.000139
0.000210
0.000383
0.000391
0.000273
0.000212
0.000333
0.000409
0.000317
0.000247
0.000231
0.000236
0.000289
0.000331
0.000294
0.000233
0.000315
0.000320
0.000320
0.000302
0.000331
0.000341
0.000241
0.000265
0.000265
0.000202
0.000176
0.000199
0.000155
0.000121
0.000289
0.000441
0.000404
0.000268
0.000278
0.000262
0.000170
0.000118
0.000163
0.000163
0.000147
0.000168
0.000144
0.000165
0.000218
0.000278
0.000265
0.000294
0.000370
0.000428
0.000352
0.000254
0.000220
0.000157
0.000066
0.000131
0.000176
0.000087
0.000084
0.000142
0.000202
0.000220
0.000299
0.000362
0.000320
0.000247
0.000212
0.000160
0.000113
0.000147
0.000163
0.000118
0.000126
0.000249
0.000283
0.000265
0.000144
0.000079
0.000152
0.000273
0.000336
0.000273
0.000191
0.000079
-0.000050
-0.000055
-0.000071
-0.000053
-0.000000
0.000063
0.000113
0.000236
0.000365
0.000273
0.000176
0.000115
0.000042
0.000003
0.000121
0.000254
0.000257
0.000296
0.000278
0.000136
0.000005
0.000066
0.000173
0.000207
0.000205
0.000299
0.000315
0.000239
0.000252
0.000262
0.000233
0.000286
0.000367
0.000239
0.000191
0.000328
0.000475
0.000407
0.000333
0.000310
0.000294
0.000278
0.000247
0.000223
0.000144
0.000236
0.000375
0.000380
0.000268
0.000236
0.000226
0.000226
0.000231
0.000252
0.000254
0.000226
0.000236
0.000210
0.000089
0.000107
0.000228
0.000294
0.000359
0.000441
0.000456
0.000270
0.000286
0.000315
0.000170
-0.000016
0.000081
0.000270
0.000283
0.000268
0.000341
0.000352
0.000207
0.000147
0.000184
0.000123
0.000073
0.000118
0.000142
0.000181
0.000197
0.000252
0.000283
0.000286
0.000262
0.000304
0.000367
0.000268
0.000249
0.000199
0.000228
0.000317
0.000391
0.000344
0.000239
0.000155
0.000157
0.000220
0.000210
0.000191
0.000249
0.000310
0.000328
0.000312
0.000286
0.000236
0.000218
0.000118
0.000066
0.000155
0.000184
0.000178
0.000115
0.000142
0.000215
0.000249
0.000257
0.000231
0.000144
0.000068
0.000039
0.000092
0.000226
0.000289
0.000289
0.000341
0.000378
0.000310
0.000289
0.000354
0.000414
0.000325
0.000215
0.000139
0.000089
0.000105
0.000226
0.000331
0.000302
0.000247
0.000257
0.000296
0.000357
0.000325
0.000199
0.000079
-0.000011
0.000042
0.000205
0.000312
0.000396
0.000273
0.000128
0.000079
0.000050
0.000076
0.000100
0.000194
0.000296
0.000375
0.000357
0.000275
0.000181
0.000142
0.000226
0.000310
0.000362
0.000359
0.000233
0.000152
0.000121
0.000128
0.000194
0.000191
0.000236
0.000346
0.000438
0.000409
0.000396
0.000404
0.000320
0.000265
0.000249
0.000260
0.000247
0.000294
0.000404
0.000428
0.000341
0.000359
0.000459
0.000475
0.000420
0.000367
0.000312
0.000178
0.000157
0.000254
0.000359
0.000370
0.000344
0.000396
0.000399
0.000357
0.000380
0.000281
0.000087
-0.000021
0.000199
0.000352
0.000296
0.000249
0.000333
0.000357
0.000176
0.000136
0.000210
0.000265
0.000273
0.000378
0.000509
0.000538
0.000506
0.000433
0.000349
0.000241
0.000087
0.000079
0.000131
0.000113
0.000118
0.000142
0.000231
0.000310
0.000283
0.000341
0.000312
0.000247
0.000231
0.000231
0.000320
0.000365
0.000428
0.000449
0.000346
0.000249
0.000275
0.000299
0.000352
0.000386
0.000420
0.000375
0.000417
0.000443
0.000412
0.000328
0.000247
0.000228
0.000286
0.000296
0.000328
0.000375
0.000441
0.000331
0.000249
0.000247
0.000257
0.000197
0.000168
0.000249
0.000286
0.000270
0.000341
0.000357
0.000291
0.000299
0.000325
0.000344
0.000294
0.000375
0.000420
0.000375
0.000386
0.000352
0.000393
0.000467
0.000509
0.000467
0.000404
0.000407
0.000367
0.000307
0.000317
0.000409
0.000375
0.000357
0.000396
0.000388
0.000299
0.000202
0.000310
0.000417
0.000451
0.000449
0.000428
0.000435
0.000420
0.000414
0.000352
0.000257
0.000231
0.000247
0.000236
0.000123
0.000105
0.000107
0.000152
0.000173
0.000207
0.000262
0.000281
0.000328
0.000278
0.000247
0.000212
0.000107
0.000118
0.000207
0.000228
0.000097
0.000131
0.000207
0.000223
0.000176
0.000173
0.000050
-0.000105
-0.000084
-0.000060
-0.000199
-0.000165
-0.000008
0.000052
0.000092
0.000312
0.000509
0.000501
0.000512
0.000538
0.000477
0.000383
0.000349
0.000380
0.000328
0.000257
0.000296
0.000352
0.000357
0.000304
0.000338
0.000338
0.000236
0.000223
0.000299
0.000370
0.000325
0.000338
0.000393
0.000354
0.000260
0.000286
0.000365
0.000346
0.000291
0.000304
0.000286
0.000302
0.000354
0.000328
0.000307
0.000317
0.000401
0.000438
0.000359
0.000289
0.000341
0.000341
0.000286
0.000273
0.000268
0.000152
-0.000045
0.000063
0.000325
0.000359
0.000354
0.000438
0.000404
0.000304
0.000383
0.000514
0.000438
0.000194
0.000189
0.000291
0.000260
0.000215
0.000236
0.000294
0.000294
0.000420
0.000543
0.000533
0.000344
0.000320
0.000391
0.000307
0.000281
0.000357
0.000257
-0.000008
-0.000024
0.000139
0.000181
0.000189
0.000286
0.000417
0.000430
0.000433
0.000428
0.000375
0.000283
0.000312
0.000354
0.000262
0.000275
0.000420
0.000435
0.000349
0.000336
0.000373
0.000299
0.000226
0.000344
0.000493
0.000459
0.000504
0.000506
0.000420
0.000328
0.000414
0.000506
0.000391
0.000265
0.000226
0.000199
0.000168
0.000149
0.000189
0.000131
0.000105
0.000207
0.000307
0.000344
0.000357
0.000435
0.000449
0.000396
0.000425
0.000449
0.000428
0.000380
0.000349
0.000317
0.000268
0.000202
0.000257
0.000304
0.000281
0.000275
0.000291
0.000249
0.000239
0.000296
0.000409
0.000373
0.000286
0.000286
0.000349
0.000336
0.000307
0.000286
0.000168
0.000139
0.000317
0.000428
0.000359
0.000291
0.000289
0.000362
0.000359
0.000302
0.000260
0.000249
0.000241
0.000294
0.000349
0.000375
0.000464
0.000551
0.000514
0.000438
0.000396
0.000375
0.000393
0.000338
0.000380
0.000443
0.000449
0.000483
0.000430
0.000302
0.000218
0.000205
0.000244
0.000304
0.000247
0.000194
0.000299
0.000446
0.000485
0.000467
0.000477
0.000443
0.000365
0.000409
0.000472
0.000420
0.000430
0.000362
0.000307
0.000328
0.000359
0.000391
0.000296
0.000199
0.000197
0.000265
0.000302
0.000268
0.000205
0.000123
0.000079
0.000191
0.000336
0.000299
0.000149
0.000115
0.000197
0.000241
0.000223
0.000378
0.000446
0.000454
0.000506
0.000609
0.000585
0.000491
0.000412
0.000399
0.000401
0.000422
0.000396
0.000407
0.000399
0.000362
0.000393
0.000488
0.000522
0.000430
0.000451
0.000449
0.000404
0.000352
0.000407
0.000480
0.000451
0.000370
0.000291
0.000247
0.000286
0.000315
0.000336
0.000328
0.000396
0.000420
0.000189
0.000034
0.000160
0.000299
0.000289
0.000283
0.000449
0.000527
0.000491
0.000488
0.000567
0.000561
0.000504
0.000475
0.000485
0.000488
0.000470
0.000480
0.000464
0.000438
0.000454
0.000401
0.000365
0.000373
0.000380
0.000328
0.000331
0.000409
0.000438
0.000375
0.000336
0.000380
0.000362
0.000283
0.000338
0.000393
0.000407
0.000435
0.000527
0.000535
0.000480
0.000396
0.000383
0.000294
0.000283
0.000344
0.000388
0.000430
0.000456
0.000470
0.000477
0.000407
0.000357
0.000354
0.000375
0.000367
0.000367
0.000435
0.000449
0.000378
0.000265
0.000268
0.000325
0.000310
0.000352
0.000449
0.000472
0.000506
0.000504
0.000467
0.000359
0.000223
0.000215
0.000281
0.000273
0.000223
0.000176
0.000092
0.000128
0.000291
0.000428
0.000472
0.000451
0.000412
0.000283
0.000165
0.000149
0.000173
0.000087
0.000128
0.000289
0.000383
0.000407
0.000422
0.000428
0.000428
0.000428
0.000472
0.000488
0.000420
0.000391
0.000401
0.000425
0.000393
0.000359
0.000354
0.000328
0.000344
0.000370
0.000417
0.000417
0.000380
0.000304
0.000331
0.000359
0.000391
0.000412
0.000299
0.000113
0.000055
0.000191
0.000281
0.000325
0.000325
0.000268
0.000268
0.000344
0.000407
0.000454
0.000412
0.000320
0.000367
0.000396
0.000359
0.000331
0.000430
0.000404
0.000194
0.000092
0.000202
0.000325
0.000317
0.000317
0.000331
0.000315
0.000304
0.000388
0.000414
0.000407
0.000336
0.000341
0.000420
0.000409
0.000370
0.000386
0.000304
0.000333
0.000407
0.000517
0.000546
0.000546
0.000561
0.000567
0.000580
0.000585
0.000559
0.000491
0.000493
0.000522
0.000454
0.000396
0.000349
0.000317
0.000391
0.000412
0.000409
0.000315
0.000260
0.000218
0.000191
0.000176
0.000260
0.000357
0.000370
0.000323
0.000373
0.000407
0.000409
0.000352
0.000268
0.000191
0.000205
0.000265
0.000275
0.000307
0.000325
0.000241
0.000228
0.000354
0.000456
0.000333
0.000239
0.000388
0.000443
0.000459
0.000498
0.000501
0.000317
0.000168
0.000233
0.000310
0.000233
0.000294
0.000451
0.000477
0.000341
0.000414
0.000598
0.000582
0.000493
0.000509
0.000590
0.000488
0.000477
0.000496
0.000422
0.000331
0.000370
0.000433
0.000417
0.000399
0.000483
0.000540
0.000533
0.000530
0.000580
0.000512
0.000412
0.000401
0.000443
0.000464
0.000491
0.000451
0.000467
0.000506
0.000504
0.000522
0.000588
0.000517
0.000417
0.000388
0.000365
0.000422
0.000409
0.000375
0.000446
0.000454
0.000383
0.000310
0.000349
0.000409
0.000438
0.000480
0.000451
0.000315
0.000173
0.000163
0.000294
0.000352
0.000359
0.000401
0.000388
0.000310
0.000328
0.000393
0.000399
0.000328
0.000325
0.000422
0.000475
0.000401
0.000278
0.000296
0.000386
0.000320
0.000302
0.000365
0.000404
0.000320
0.000333
0.000417
0.000438
0.000399
0.000456
0.000535
0.000504
0.000422
0.000425
0.000362
0.000296
0.000249
0.000278
0.000302
0.000383
0.000480
0.000546
0.000517
0.000514
0.000561
0.000467
0.000362
0.000375
0.000388
0.000317
0.000367
0.000470
0.000496
0.000401
0.000359
0.000393
0.000370
0.000328
0.000422
0.000551
0.000464
0.000359
0.000404
0.000551
0.000554
0.000485
0.000564
0.000559
0.000488
0.000488
0.000519
0.000401
0.000341
0.000388
0.000357
0.000349
0.000393
0.000464
0.000498
0.000509
0.000525
0.000559
0.000572
0.000522
0.000454
0.000346
0.000328
0.000401
0.000430
0.000454
0.000462
0.000456
0.000485
0.000517
0.000517
0.000517
0.000456
0.000433
0.000412
0.000430
0.000422
0.000388
0.000362
0.000317
0.000341
0.000412
0.000467
0.000493
0.000485
0.000480
0.000530
0.000554
0.000472
0.000464
0.000480
0.000459
0.000493
0.000467
0.000459
0.000441
0.000438
0.000477
0.000480
0.000438
0.000435
0.000414
0.000341
0.000357
0.000373
0.000409
0.000430
0.000433
0.000493
0.000383
0.000286
0.000265
0.000191
0.000113
0.000265
0.000483
0.000538
0.000501
0.000519
0.000464
0.000349
0.000325
0.000262
0.000163
0.000191
0.000226
0.000254
0.000336
0.000362
0.000357
0.000291
0.000296
0.000365
0.000373
0.000428
0.000517
0.000527
0.000446
0.000451
0.000501
0.000467
0.000354
0.000412
0.000488
0.000496
0.000367
0.000341
0.000422
0.000506
0.000538
0.000554
0.000577
0.000561
0.000517
0.000459
0.000446
0.000401
0.000317
0.000317
0.000399
0.000464
0.000414
0.000396
0.000438
0.000477
0.000425
0.000336
0.000328
0.000299
0.000275
0.000268
0.000367
0.000433
0.000407
0.000454
0.000501
0.000572
0.000577
0.000609
0.000624
0.000619
0.000572
0.000561
0.000546
0.000522
0.000470
0.000464
0.000459
0.000422
0.000378
0.000422
0.000467
0.000480
0.000472
0.000417
0.000396
0.000464
0.000462
0.000412
0.000443
0.000506
0.000496
0.000517
0.000501
0.000470
0.000470
0.000535
0.000548
0.000480
0.000380
0.000375
0.000383
0.000433
0.000488
0.000475
0.000433
0.000443
0.000414
0.000362
0.000380
0.000409
0.000367
0.000336
0.000362
0.000420
0.000509
0.000438
0.000333
0.000338
0.000341
0.000373
0.000404
0.000525
0.000546
0.000472
0.000519
0.000454
0.000312
0.000281
0.000268
0.000278
0.000341
0.000441
0.000488
0.000443
0.000380
0.000338
0.000338
0.000291
0.000310
0.000375
0.000380
0.000393
0.000498
0.000590
0.000582
0.000530
0.000467
0.000438
0.000438
0.000462
0.000498
0.000459
0.000464
0.000459
0.000441
0.000380
0.000380
0.000375
0.000346
0.000333
0.000375
0.000477
0.000462
0.000488
0.000533
0.000509
0.000393
0.000349
0.000325
0.000399
0.000417
0.000420
0.000404
0.000396
0.000357
0.000399
0.000498
0.000483
0.000391
0.000399
0.000477
0.000443
0.000456
0.000498
0.000443
0.000378
0.000454
0.000533
0.000496
0.000483
0.000472
0.000407
0.000262
0.000325
0.000446
0.000535
0.000441
0.000462
0.000506
0.000470
0.000467
0.000480
0.000483
0.000525
0.000569
0.000593
0.000567
0.000585
0.000580
0.000519
0.000451
0.000470
0.000446
0.000367
0.000412
0.000504
0.000514
0.000496
0.000456
0.000467
0.000485
0.000475
0.000509
0.000527
0.000546
0.000535
0.000525
0.000470
0.000464
0.000470
0.000454
0.000391
0.000438
0.000462
0.000470
0.000535
0.000611
0.000611
0.000493
0.000383
0.000346
0.000354
0.000341
0.000449
0.000585
0.000556
0.000530
0.000391
0.000315
0.000310
0.000249
0.000197
0.000307
0.000310
0.000320
0.000491
0.000543
0.000509
0.000417
0.000428
0.000414
0.000401
0.000462
0.000593
0.000596
0.000530
0.000493
0.000538
0.000567
0.000593
0.000533
0.000454
0.000409
0.000399
0.000441
0.000519
0.000441
0.000388
0.000370
0.000362
0.000396
0.000451
0.000501
0.000483
0.000509
0.000514
0.000509
0.000446
0.000399
0.000428
0.000425
0.000409
0.000391
0.000420
0.000341
0.000262
0.000262
0.000291
0.000359
0.000470
0.000519
0.000580
0.000598
0.000603
0.000519
0.000477
0.000504
0.000501
0.000386
0.000336
0.000362
0.000433
0.000380
0.000443
0.000449
0.000449
0.000449
0.000446
0.000449
0.000428
0.000404
0.000378
0.000338
0.000289
0.000317
0.000393
0.000401
0.000412
0.000433
0.000438
0.000375
0.000357
0.000401
0.000383
0.000428
0.000462
0.000470
0.000464
0.000464
0.000514
0.000441
0.000391
0.000435
0.000467
0.000483
0.000483
0.000512
0.000475
0.000485
0.000488
0.000538
0.000530
0.000504
0.000546
0.000572
0.000535
0.000451
0.000414
0.000375
0.000336
0.000265
0.000281
0.000333
0.000378
0.000393
0.000414
0.000472
0.000519
0.000533
0.000588
0.000554
0.000496
0.000456
0.000543
0.000517
0.000501
0.000477
0.000396
0.000422
0.000446
0.000459
0.000472
0.000459
0.000480
0.000506
0.000538
0.000577
0.000564
0.000543
0.000496
0.000401
0.000393
0.000443
0.000475
0.000485
0.000459
0.000493
0.000443
0.000386
0.000467
0.000506
0.000443
0.000498
0.000491
0.000433
0.000396
0.000462
0.000467
0.000320
0.000378
0.000443
0.000346
0.000262
0.000333
0.000433
0.000396
0.000409
0.000464
0.000498
0.000422
0.000420
0.000464
0.000435
0.000354
0.000401
0.000449
0.000459
0.000483
0.000538
0.000564
0.000561
0.000572
0.000559
0.000525
0.000443
0.000359
0.000375
0.000380
0.000414
0.000491
0.000501
0.000456
0.000433
0.000323
0.000289
0.000262
0.000365
0.000443
0.000485
0.000533
0.000530
0.000551
0.000538
0.000519
0.000519
0.000525
0.000501
0.000454
0.000451
0.000540
0.000575
0.000522
0.000470
0.000438
0.000425
0.000456
0.000443
0.000430
0.000435
0.000462
0.000477
0.000485
0.000540
0.000582
0.000580
0.000551
0.000477
0.000438
0.000407
0.000352
0.000320
0.000333
0.000341
0.000346
0.000352
0.000367
0.000396
0.000399
0.000462
0.000506
0.000512
0.000506
0.000509
0.000556
0.000598
0.000601
0.000548
0.000462
0.000456
0.000512
0.000509
0.000485
0.000485
0.000441
0.000456
0.000485
0.000477
0.000509
0.000514
0.000425
0.000312
0.000310
0.000480
0.000533
0.000527
0.000488
0.000422
0.000430
0.000522
0.000580
0.000590
0.000464
0.000399
0.000454
0.000525
0.000472
0.000380
0.000315
0.000302
0.000294
0.000320
0.000241
0.000215
0.000333
0.000438
0.000483
0.000491
0.000530
0.000538
0.000582
0.000588
0.000564
0.000512
0.000504
0.000540
0.000464
0.000354
0.000386
0.000475
0.000449
0.000378
0.000278
0.000273
0.000404
0.000509
0.000506
0.000498
0.000441
0.000475
0.000509
0.000504
0.000470
0.000414
0.000417
0.000373
0.000325
0.000383
0.000491
0.000514
0.000420
0.000386
0.000341
0.000294
0.000338
0.000443
0.000504
0.000575
0.000572
0.000548
0.000512
0.000488
0.000485
0.000527
0.000535
0.000530
0.000522
0.000569
0.000601
0.000619
0.000627
0.000585
0.000554
0.000527
0.000456
0.000446
0.000417
0.000399
0.000470
0.000551
0.000527
0.000572
0.000559
0.000567
0.000556
0.000535
0.000556
0.000509
0.000470
0.000428
0.000391
0.000357
0.000349
0.000354
0.000378
0.000414
0.000443
0.000512
0.000498
0.000519
0.000498
0.000504
0.000514
0.000501
0.000519
0.000485
0.000430
0.000422
0.000422
0.000483
0.000514
0.000554
0.000498
0.000491
0.000470
0.000438
0.000430
0.000391
0.000391
0.000472
0.000430
0.000378
0.000467
0.000533
0.000519
0.000540
0.000569
0.000527
0.000554
0.000577
0.000619
0.000554
0.000506
0.000546
0.000572
0.000572
0.000535
0.000527
0.000446
0.000365
0.000362
0.000404
0.000401
0.000388
0.000485
0.000472
0.000438
0.000483
0.000525
0.000404
0.000325
0.000378
0.000378
0.000312
0.000349
0.000435
0.000496
0.000517
0.000525
0.000585
0.000551
0.000522
0.000517
0.000475
0.000373
0.000262
0.000307
0.000420
0.000367
0.000370
0.000475
0.000522
0.000501
0.000530
0.000567
0.000580
0.000569
0.000622
0.000638
0.000567
0.000540
0.000506
0.000470
0.000472
0.000580
0.000611
0.000554
0.000543
0.000585
0.000582
0.000567
0.000530
0.000493
0.000470
0.000477
0.000533
0.000538
0.000522
0.000409
0.000338
0.000341
0.000407
0.000451
0.000485
0.000509
0.000512
0.000443
0.000323
0.000338
0.000325
0.000294
0.000365
0.000472
0.000540
0.000533
0.000564
0.000522
0.000449
0.000428
0.000483
0.000501
0.000467
0.000554
0.000606
0.000554
0.000540
0.000512
0.000333
0.000244
0.000375
0.000425
0.000317
0.000268
0.000365
0.000310
0.000336
0.000454
0.000546
0.000509
0.000527
0.000635
0.000596
0.000517
0.000512
0.000525
0.000378
0.000302
0.000367
0.000407
0.000391
0.000430
0.000467
0.000391
0.000380
0.000540
0.000593
0.000485
0.000493
0.000593
0.000585
0.000519
0.000535
0.000619
0.000603
0.000519
0.000548
0.000538
0.000496
0.000517
0.000567
0.000548
0.000496
0.000441
0.000386
0.000283
0.000252
0.000294
0.000375
0.000428
0.000480
0.000522
0.000496
0.000509
0.000575
0.000603
0.000590
0.000527
0.000506
0.000493
0.000422
0.000346
0.000365
0.000446
0.000388
0.000378
0.000504
0.000540
0.000543
0.000428
0.000401
0.000443
0.000386
0.000383
0.000422
0.000522
0.000575
0.000575
0.000617
0.000606
0.000533
0.000435
0.000412
0.000399
0.000294
0.000278
0.000320
0.000357
0.000443
0.000538
0.000601
0.000572
0.000533
0.000525
0.000509
0.000543
0.000559
0.000556
0.000504
0.000509
0.000449
0.000367
0.000270
0.000283
0.000354
0.000417
0.000441
0.000496
0.000551
0.000496
0.000459
0.000462
0.000548
0.000509
0.000540
0.000603
0.000543
0.000470
0.000456
0.000475
0.000488
0.000428
0.000354
0.000362
0.000412
0.000399
0.000380
0.000430
0.000435
0.000412
0.000417
0.000488
0.000512
0.000512
0.000470
0.000483
0.000446
0.000459
0.000475
0.000498
0.000535
0.000519
0.000501
0.000504
0.000546
0.000554
0.000506
0.000519
0.000546
0.000569
0.000582
0.000598
0.000575
0.000543
0.000519
0.000493
0.000428
0.000388
0.000477
0.000572
0.000603
0.000601
0.000619
0.000669
0.000638
0.000561
0.000533
0.000543
0.000525
0.000525
0.000559
0.000496
0.000383
0.000357
0.000422
0.000456
0.000451
0.000446
0.000454
0.000456
0.000540
0.000554
0.000543
0.000575
0.000561
0.000564
0.000533
0.000480
0.000430
0.000396
0.000451
0.000514
0.000480
0.000462
0.000501
0.000517
0.000543
0.000522
0.000525
0.000506
0.000428
0.000417
0.000443
0.000522
0.000509
0.000496
0.000546
0.000548
0.000525
0.000522
0.000470
0.000412
0.000393
0.000425
0.000430
0.000459
0.000556
0.000556
0.000554
0.000590
0.000559
0.000493
0.000475
0.000535
0.000580
0.000535
0.000496
0.000501
0.000535
0.000546
0.000517
0.000446
0.000391
0.000333
0.000223
0.000278
0.000430
0.000506
0.000504
0.000504
0.000493
0.000538
0.000538
0.000522
0.000480
0.000383
0.000399
0.000501
0.000525
0.000464
0.000509
0.000546
0.000582
0.000525
0.000475
0.000504
0.000477
0.000441
0.000509
0.000556
0.000590
0.000611
0.000635
0.000601
0.000567
0.000538
0.000493
0.000386
0.000333
0.000386
0.000378
0.000336
0.000378
0.000428
0.000438
0.000462
0.000501
0.000567
0.000567
0.000598
0.000606
0.000533
0.000438
0.000373
0.000391
0.000412
0.000386
0.000441
0.000506
0.000451
0.000480
0.000525
0.000585
0.000588
0.000554
0.000540
0.000512
0.000501
0.000491
0.000462
0.000498
0.000556
0.000483
0.000393
0.000328
0.000354
0.000338
0.000333
0.000428
0.000459
0.000462
0.000475
0.000491
0.000514
0.000491
0.000509
0.000514
0.000546
0.000572
0.000598
0.000554
0.000519
0.000554
0.000561
0.000535
0.000530
0.000538
0.000485
0.000412
0.000449
0.000485
0.000501
0.000488
0.000519
0.000543
0.000564
0.000554
0.000535
0.000601
0.000619
0.000601
0.000609
0.000577
0.000525
0.000517
0.000538
0.000496
0.000509
0.000519
0.000530
0.000543
0.000561
0.000475
0.000396
0.000446
0.000496
0.000446
0.000417
0.000480
0.000546
0.000504
0.000488
0.000443
0.000367
0.000401
0.000546
0.000551
0.000546
0.000556
0.000580
0.000496
0.000399
0.000485
0.000564
0.000535
0.000527
0.000598
0.000601
0.000564
0.000556
0.000504
0.000428
0.000401
0.000454
0.000391
0.000359
0.000428
0.000477
0.000519
0.000567
0.000593
0.000596
0.000491
0.000496
0.000530
0.000506
0.000512
0.000485
0.000420
0.000451
0.000496
0.000564
0.000525
0.000498
0.000509
0.000551
0.000601
0.000630
0.000648
0.000619
0.000561
0.000575
0.000582
0.000538
0.000467
0.000477
0.000504
0.000548
0.000525
0.000561
0.000540
0.000533
0.000483
0.000485
0.000485
0.000522
0.000498
0.000498
0.000480
0.000409
0.000399
0.000446
0.000464
0.000409
0.000367
0.000467
0.000509
0.000596
0.000580
0.000611
0.000588
0.000598
0.000611
0.000580
0.000538
0.000575
0.000498
0.000449
0.000438
0.000433
0.000456
0.000543
0.000598
0.000611
0.000580
0.000585
0.000611
0.000585
0.000548
0.000543
0.000585
0.000596
0.000609
0.000601
0.000572
0.000543
0.000527
0.000514
0.000412
0.000388
0.000485
0.000577
0.000564
0.000498
0.000538
0.000559
0.000501
0.000517
0.000540
0.000538
0.000548
0.000559
0.000533
0.000535
0.000525
0.000530
0.000522
0.000575
0.000603
0.000622
0.000561
0.000556
0.000569
0.000548
0.000491
0.000462
0.000496
0.000514
0.000514
0.000530
0.000546
0.000567
0.000577
0.000606
0.000567
0.000535
0.000475
0.000485
0.000540
0.000588
0.000512
0.000435
0.000467
0.000496
0.000504
0.000504
0.000551
0.000522
0.000477
0.000438
0.000483
0.000538
0.000530
0.000569
0.000614
0.000564
0.000572
0.000535
0.000540
0.000543
0.000527
0.000435
0.000338
0.000291
0.000312
0.000404
0.000393
0.000449
0.000572
0.000609
0.000645
0.000656
0.000669
0.000638
0.000590
0.000517
0.000420
0.000422
0.000488
0.000575
0.000577
0.000519
0.000443
0.000365
0.000262
0.000218
0.000249
0.000310
0.000433
0.000506
0.000514
0.000580
0.000556
0.000543
0.000530
0.000496
0.000535
0.000533
0.000564
0.000580
0.000527
0.000462
0.000462
0.000451
0.000407
0.000383
0.000456
0.000548
0.000530
0.000540
0.000496
0.000480
0.000493
0.000596
0.000632
0.000609
0.000622
0.000551
0.000556
0.000603
0.000624
0.000606
0.000585
0.000617
0.000522
0.000464
0.000512
0.000556
0.000535
0.000483
0.000488
0.000506
0.000493
0.000464
0.000483
0.000480
0.000438
0.000451
0.000530
0.000551
0.000501
0.000470
0.000496
0.000480
0.000396
0.000396
0.000477
0.000470
0.000399
0.000456
0.000543
0.000543
0.000506
0.000514
0.000543
0.000530
0.000535
0.000569
0.000561
0.000477
0.000496
0.000567
0.000575
0.000527
0.000572
0.000640
0.000593
0.000590
0.000603
0.000601
0.000569
0.000588
0.000543
0.000506
0.000512
0.000572
0.000598
0.000464
0.000407
0.000472
0.000554
0.000601
0.000554
0.000554
0.000535
0.000527
0.000498
0.000477
0.000543
0.000567
0.000577
0.000546
0.000443
0.000454
0.000459
0.000480
0.000519
0.000546
0.000535
0.000522
0.000485
0.000433
0.000383
0.000391
0.000383
0.000464
0.000443
0.000464
0.000567
0.000643
0.000617
0.000564
0.000564
0.000548
0.000470
0.000409
0.000407
0.000365
0.000346
0.000504
0.000561
0.000556
0.000596
0.000603
0.000564
0.000527
0.000525
0.000569
0.000575
0.000593
0.000617
0.000588
0.000556
0.000551
0.000530
0.000506
0.000491
0.000527
0.000577
0.000569
0.000564
0.000598
0.000606
0.000603
0.000611
0.000656
0.000622
0.000535
0.000530
0.000582
0.000522
0.000493
0.000475
0.000491
0.000504
0.000506
0.000522
0.000512
0.000554
0.000551
0.000517
0.000491
0.000470
0.000548
0.000538
0.000535
0.000514
0.000485
0.000498
0.000530
0.000540
0.000498
0.000501
0.000556
0.000564
0.000564
0.000561
0.000596
0.000638
0.000638
0.000572
0.000580
0.000514
0.000454
0.000404
0.000433
0.000522
0.000567
0.000491
0.000525
0.000548
0.000551
0.000543
0.000554
0.000554
0.000540
0.000512
0.000517
0.000548
0.000546
0.000514
0.000527
0.000506
0.000480
0.000533
0.000590
0.000603
0.000619
0.000585
0.000611
0.000561
0.000543
0.000585
0.000548
0.000498
0.000488
0.000519
0.000506
0.000522
0.000582
0.000590
0.000588
0.000614
0.000679
0.000622
0.000572
0.000533
0.000540
0.000493
0.000504
0.000454
0.000454
0.000514
0.000533
0.000556
0.000519
0.000509
0.000496
0.000493
0.000546
0.000577
0.000564
0.000564
0.000585
0.000582
0.000527
0.000428
0.000470
0.000519
0.000572
0.000611
0.000540
0.000446
0.000367
0.000373
0.000380
0.000323
0.000354
0.000409
0.000462
0.000462
0.000509
0.000588
0.000611
0.000593
0.000640
0.000653
0.000567
0.000491
0.000420
0.000302
0.000281
0.000375
0.000493
0.000509
0.000496
0.000496
0.000472
0.000533
0.000598
0.000564
0.000512
0.000519
0.000472
0.000443
0.000425
0.000488
0.000522
0.000462
0.000519
0.000585
0.000577
0.000575
0.000611
0.000627
0.000585
0.000506
0.000572
0.000606
0.000522
0.000488
0.000556
0.000572
0.000540
0.000603
0.000624
0.000624
0.000522
0.000530
0.000561
0.000519
0.000485
0.000509
0.000567
0.000554
0.000559
0.000582
0.000617
0.000609
0.000569
0.000609
0.000638
0.000627
0.000632
0.000598
0.000517
0.000493
0.000564
0.000582
0.000617
0.000548
0.000514
0.000475
0.000517
0.000538
0.000559
0.000525
0.000504
0.000506
0.000561
0.000598
0.000627
0.000575
0.000598
0.000572
0.000588
0.000556
0.000556
0.000596
0.000588
0.000580
0.000593
0.000561
0.000554
0.000491
0.000527
0.000538
0.000527
0.000467
0.000454
0.000383
0.000349
0.000344
0.000467
0.000561
0.000509
0.000454
0.000519
0.000582
0.000551
0.000441
0.000451
0.000530
0.000567
0.000575
0.000661
0.000651
0.000609
0.000564
0.000588
0.000590
0.000575
0.000561
0.000614
0.000535
0.000551
0.000569
0.000535
0.000470
0.000470
0.000493
0.000485
0.000454
0.000464
0.000538
0.000496
0.000425
0.000441
0.000456
0.000498
0.000504
0.000475
0.000509
0.000488
0.000512
0.000590
0.000624
0.000622
0.000611
0.000627
0.000588
0.000580
0.000577
0.000593
0.000601
0.000614
0.000645
0.000614
0.000606
0.000593
0.000561
0.000569
0.000590
0.000556
0.000496
0.000530
0.000559
0.000554
0.000522
0.000564
0.000593
0.000582
0.000556
0.000543
0.000451
0.000430
0.000475
0.000417
0.000349
0.000373
0.000449
0.000493
0.000533
0.000603
0.000593
0.000525
0.000546
0.000585
0.000554
0.000517
0.000540
0.000627
0.000590
0.000580
0.000624
0.000627
0.000533
0.000496
0.000493
0.000504
0.000483
0.000462
0.000446
0.000493
0.000551
0.000569
0.000585
0.000606
0.000525
0.000506
0.000498
0.000525
0.000551
0.000527
0.000554
0.000491
0.000401
0.000404
0.000435
0.000496
0.000525
0.000527
0.000506
0.000488
0.000509
0.000611
0.000619
0.000627
0.000614
0.000588
0.000543
0.000485
0.000480
0.000512
0.000454
0.000501
0.000517
0.000527
0.000593
0.000630
0.000588
0.000535
0.000488
0.000527
0.000551
0.000509
0.000556
0.000559
0.000498
0.000554
0.000575
0.000548
0.000483
0.000543
0.000580
0.000593
0.000535
0.000572
0.000632
0.000601
0.000588
0.000590
0.000538
0.000414
0.000441
0.000540
0.000564
0.000590
0.000624
0.000661
0.000624
0.000593
0.000606
0.000501
0.000480
0.000533
0.000590
0.000588
0.000624
0.000609
0.000514
0.000449
0.000454
0.000470
0.000378
0.000425
0.000449
0.000501
0.000475
0.000572
0.000651
0.000596
0.000551
0.000619
0.000580
0.000564
0.000585
0.000640
0.000585
0.000533
0.000567
0.000656
0.000609
0.000590
0.000611
0.000632
0.000535
0.000588
0.000596
0.000519
0.000483
0.000535
0.000530
0.000509
0.000504
0.000548
0.000617
0.000617
0.000609
0.000624
0.000564
0.000522
0.000548
0.000590
0.000533
0.000496
0.000540
0.000546
0.000517
0.000567
0.000504
0.000420
0.000412
0.000477
0.000535
0.000517
0.000533
0.000585
0.000577
0.000556
0.000540
0.000611
0.000580
0.000540
0.000519
0.000533
0.000538
0.000551
0.000614
0.000577
0.000559
0.000609
0.000640
0.000596
0.000561
0.000590
0.000569
0.000554
0.000622
0.000656
0.000609
0.000577
0.000630
0.000627
0.000538
0.000559
0.000546
0.000527
0.000517
0.000611
0.000624
0.000540
0.000517
0.000598
0.000614
0.000496
0.000462
0.000496
0.000496
0.000506
0.000538
0.000522
0.000551
0.000596
0.000551
0.000464
0.000380
0.000475
0.000480
0.000449
0.000422
0.000498
0.000538
0.000564
0.000601
0.000624
0.000598
0.000575
0.000601
0.000598
0.000543
0.000525
0.000582
0.000611
0.000569
0.000609
0.000658
0.000593
0.000480
0.000512
0.000501
0.000506
0.000540
0.000582
0.000530
0.000498
0.000551
0.000632
0.000596
0.000590
0.000601
0.000593
0.000598
0.000661
0.000682
0.000666
0.000624
0.000588
0.000554
0.000501
0.000501
0.000548
0.000525
0.000577
0.000598
0.000627
0.000630
0.000614
0.000590
0.000525
0.000464
0.000477
0.000472
0.000438
0.000362
0.000404
0.000517
0.000512
0.000533
0.000564
0.000614
0.000622
0.000569
0.000554
0.000546
0.000543
0.000477
0.000409
0.000354
0.000365
0.000449
0.000519
0.000512
0.000512
0.000519
0.000577
0.000638
0.000635
0.000617
0.000572
0.000590
0.000598
0.000559
0.000556
0.000559
0.000551
0.000596
0.000593
0.000622
0.000596
0.000580
0.000588
0.000619
0.000614
0.000638
0.000664
0.000596
0.000533
0.000535
0.000548
0.000575
0.000596
0.000614
0.000593
0.000572
0.000525
0.000501
0.000551
0.000527
0.000585
0.000622
0.000656
0.000690
0.000653
0.000619
0.000527
0.000399
0.000409
0.000454
0.000533
0.000593
0.000651
0.000638
0.000643
0.000624
0.000619
0.000533
0.000470
0.000543
0.000585
0.000577
0.000564
0.000580
0.000575
0.000575
0.000593
0.000611
0.000614
0.000572
0.000598
0.000606
0.000596
0.000582
0.000635
0.000635
0.000606
0.000627
0.000598
0.000567
0.000548
0.000561
0.000556
0.000522
0.000580
0.000582
0.000551
0.000606
0.000572
0.000543
0.000517
0.000538
0.000543
0.000535
0.000585
0.000588
0.000527
0.000475
0.000554
0.000593
0.000538
0.000538
0.000606
0.000598
0.000546
0.000538
0.000593
0.000567
0.000535
0.000561
0.000638
0.000627
0.000632
0.000643
0.000609
0.000577
0.000609
0.000635
0.000585
0.000582
0.000538
0.000480
