Start time = 18:35:45.572964
End time = 18:35:55.509616
laser_energy = 7.680
channel_1_dial = 850
channel_2_dial = 850
channel_3_dial = 850
channel_4_dial = 850
NG-1-LII = 0
NG-3-15399 = 0
NG-4-LII = 0
NG-4-15399 = 0
NG-5-LII = 0
NG-5-15399 = 0
NG-9-LII = 0
NG-9-15399 = 0
NG-10-01 = 0
NG-11-15399 = 0
NG-12-15399 = 0
NG-4A-2001 = 0
NG-4B-2001 = 0
NG-5A-2001 = 0
NG-3-2001 = 0
NG-5B-2001 = 0
NG-1-2001 = 0
NG-9-2001 = 0
NG-10-2001 = 0
NG-11-2001 = 0
NG-12-2001 = 0
AND-200SN09 = 0
AND-100SN09 = 0
AND-050SN09 = 0
AND-030SN09 = 0
AND-015SN05 = 0
PMT#1Voltage = 0
PMT#2Voltage = 0
t0(sec) = 0.000000E+0
dt(sec) = 4.000000E-10
F1:INSP "
DESCRIPTOR_NAME    : WAVEDESC           
TEMPLATE_NAME      : LECROY_2_3         
COMM_TYPE          : word               
COMM_ORDER         : HIFIRST            
WAVE_DESCRIPTOR    : 346                
USER_TEXT          : 0                  
RES_DESC1          : 0                  
TRIGTIME_ARRAY     : 0                  
RIS_TIME_ARRAY     : 0                  
RES_ARRAY1         : 0                  
WAVE_ARRAY_1       : 10002              
WAVE_ARRAY_2       : 0                  
RES_ARRAY2         : 0                  
RES_ARRAY3         : 0                  
INSTRUMENT_NAME    : LECROYHDO6104      
INSTRUMENT_NUMBER  : 6308               
TRACE_LABEL        :                    
RESERVED1          : 5001               
RESERVED2          : 0                  
WAVE_ARRAY_COUNT   : 5001               
PNTS_PER_SCREEN    : 5000               
FIRST_VALID_PNT    : 0                  
LAST_VALID_PNT     : 5000               
FIRST_POINT        : 0                  
SPARSING_FACTOR    : 1                  
SEGMENT_INDEX      : 0                  
SUBARRAY_COUNT     : 1                  
SWEEPS_PER_ACQ     : 200                
POINTS_PER_PAIR    : 0                  
PAIR_OFFSET        : 0                  
VERTICAL_GAIN      : 3.4984e-006        
VERTICAL_OFFSET    : 8.8999e-002        
MAX_VALUE          : 3.0778e+004        
MIN_VALUE          : 1.3426e+004        
NOMINAL_BITS       : 16                 
NOM_SUBARRAY_COUNT : 1                  
HORIZ_INTERVAL     : 4.0000e-010        
HORIZ_OFFSET       : -2.00000000e-007   
PIXEL_OFFSET       : -2.00000000e-007   
VERTUNIT           : Unit Name = V
HORUNIT            : Unit Name = S
HORIZ_UNCERTAINTY  : 1.0000e-012        
TRIGGER_TIME       : Date = APR 17, 2024, Time = 19:35:41.450611058
ACQ_DURATION       : 9.9988e+000        
RECORD_TYPE        : single_sweep       
PROCESSING_DONE    : no_processing      
RESERVED5          : 0                  
RIS_SWEEPS         : 1                  
TIMEBASE           : 200_ns/div         
VERT_COUPLING      : DC_50_Ohms         
PROBE_ATT          : 1.0000e+000        
FIXED_VERT_GAIN    : 5_mV/div           
BANDWIDTH_LIMIT    : off                
VERTICAL_VERNIER   : 1.5400e+000        
ACQ_VERT_OFFSET    : 0.0000e+000        
WAVE_SOURCE        : UNKNOWN            
"
0.000420
0.000441
0.000434
0.000413
0.000441
0.000444
0.000434
0.000392
0.000430
0.000430
0.000416
0.000416
0.000430
0.000437
0.000413
0.000420
0.000441
0.000434
0.000420
0.000402
0.000448
0.000465
0.000437
0.000416
0.000441
0.000455
0.000413
0.000437
0.000427
0.000423
0.000434
0.000406
0.000434
0.000416
0.000427
0.000423
0.000427
0.000444
0.000430
0.000427
0.000441
0.000437
0.000434
0.000409
0.000392
0.000434
0.000420
0.000423
0.000413
0.000406
0.000388
0.000392
0.000437
0.000409
0.000406
0.000441
0.000462
0.000423
0.000430
0.000420
0.000416
0.000399
0.000395
0.000392
0.000406
0.000409
0.000420
0.000420
0.000441
0.000451
0.000462
0.000444
0.000455
0.000427
0.000437
0.000413
0.000423
0.000416
0.000413
0.000416
0.000420
0.000413
0.000413
0.000416
0.000451
0.000455
0.000427
0.000441
0.000458
0.000420
0.000420
0.000430
0.000451
0.000448
0.000441
0.000430
0.000437
0.000409
0.000430
0.000402
0.000430
0.000406
0.000388
0.000402
0.000399
0.000444
0.000416
0.000441
0.000465
0.000430
0.000413
0.000420
0.000458
0.000434
0.000413
0.000437
0.000420
0.000455
0.000427
0.000430
0.000451
0.000451
0.000409
0.000416
0.000437
0.000437
0.000399
0.000451
0.000451
0.000462
0.000462
0.000430
0.000490
0.000455
0.000437
0.000451
0.000476
0.000451
0.000448
0.000458
0.000437
0.000434
0.000430
0.000448
0.000423
0.000437
0.000402
0.000413
0.000423
0.000427
0.000409
0.000413
0.000434
0.000416
0.000434
0.000441
0.000420
0.000434
0.000444
0.000434
0.000451
0.000437
0.000416
0.000444
0.000427
0.000444
0.000444
0.000406
0.000420
0.000420
0.000402
0.000399
0.000423
0.000374
0.000406
0.000392
0.000420
0.000413
0.000420
0.000381
0.000434
0.000451
0.000441
0.000451
0.000469
0.000413
0.000430
0.000409
0.000413
0.000423
0.000402
0.000371
0.000420
0.000388
0.000357
0.000346
0.000357
0.000399
0.000402
0.000353
0.000392
0.000437
0.000416
0.000420
0.000437
0.000465
0.000434
0.000420
0.000430
0.000409
0.000409
0.000374
0.000399
0.000413
0.000392
0.000409
0.000392
0.000406
0.000399
0.000388
0.000409
0.000416
0.000395
0.000420
0.000437
0.000444
0.000413
0.000399
0.000427
0.000455
0.000430
0.000434
0.000448
0.000469
0.000444
0.000434
0.000437
0.000430
0.000402
0.000416
0.000441
0.000455
0.000427
0.000437
0.000423
0.000430
0.000413
0.000430
0.000465
0.000448
0.000437
0.000430
0.000469
0.000444
0.000437
0.000430
0.000427
0.000420
0.000455
0.000437
0.000423
0.000427
0.000416
0.000437
0.000434
0.000437
0.000420
0.000427
0.000455
0.000448
0.000423
0.000441
0.000448
0.000423
0.000420
0.000455
0.000451
0.000458
0.000434
0.000437
0.000420
0.000441
0.000430
0.000444
0.000434
0.000420
0.000395
0.000416
0.000469
0.000448
0.000434
0.000416
0.000427
0.000430
0.000392
0.000430
0.000451
0.000437
0.000413
0.000416
0.000472
0.000441
0.000437
0.000430
0.000423
0.000420
0.000434
0.000430
0.000416
0.000402
0.000385
0.000420
0.000385
0.000420
0.000385
0.000406
0.000399
0.000392
0.000388
0.000413
0.000434
0.000448
0.000448
0.000434
0.000444
0.000430
0.000423
0.000427
0.000416
0.000416
0.000427
0.000416
0.000416
0.000420
0.000423
0.000420
0.000420
0.000434
0.000455
0.000427
0.000462
0.000476
0.000462
0.000455
0.000462
0.000458
0.000444
0.000441
0.000448
0.000437
0.000455
0.000427
0.000451
0.000441
0.000427
0.000416
0.000413
0.000462
0.000409
0.000434
0.000395
0.000434
0.000413
0.000402
0.000434
0.000406
0.000434
0.000402
0.000451
0.000437
0.000430
0.000444
0.000427
0.000430
0.000441
0.000472
0.000479
0.000437
0.000392
0.000392
0.000395
0.000434
0.000423
0.000406
0.000423
0.000441
0.000416
0.000416
0.000434
0.000441
0.000420
0.000451
0.000462
0.000406
0.000441
0.000399
0.000441
0.000434
0.000416
0.000409
0.000420
0.000434
0.000423
0.000409
0.000420
0.000413
0.000423
0.000416
0.000490
0.000444
0.000388
0.000388
0.000402
0.000413
0.000409
0.000437
0.000448
0.000441
0.000430
0.000416
0.000423
0.000416
0.000392
0.000374
0.000406
0.000395
0.000399
0.000399
0.000406
0.000437
0.000409
0.000402
0.000423
0.000430
0.000483
0.000472
0.000451
0.000406
0.000360
0.000381
0.000385
0.000406
0.000409
0.000430
0.000462
0.000486
0.000476
0.000476
0.000434
0.000406
0.000395
0.000413
0.000378
0.000395
0.000364
0.000395
0.000437
0.000434
0.000444
0.000423
0.000465
0.000476
0.000500
0.000525
0.000518
0.000514
0.000469
0.000395
0.000388
0.000364
0.000329
0.000385
0.000402
0.000416
0.000434
0.000399
0.000374
0.000392
0.000381
0.000409
0.000434
0.000430
0.000420
0.000437
0.000483
0.000500
0.000493
0.000493
0.000521
0.000535
0.000497
0.000525
0.000476
0.000409
0.000360
0.000339
0.000291
0.000284
0.000305
0.000284
0.000298
0.000322
0.000322
0.000374
0.000434
0.000532
0.000595
0.000630
0.000665
0.000640
0.000588
0.000567
0.000507
0.000420
0.000378
0.000270
0.000270
0.000217
0.000214
0.000203
0.000263
0.000315
0.000367
0.000427
0.000437
0.000514
0.000507
0.000511
0.000542
0.000490
0.000490
0.000448
0.000399
0.000406
0.000409
0.000420
0.000434
0.000465
0.000395
0.000409
0.000434
0.000469
0.000500
0.000518
0.000514
0.000486
0.000451
0.000444
0.000409
0.000427
0.000371
0.000360
0.000374
0.000301
0.000333
0.000235
0.000039
-0.000441
-0.001413
-0.003267
-0.006804
-0.013157
-0.022869
-0.032591
-0.040508
-0.047638
-0.054208
-0.059252
-0.062730
-0.065333
-0.067330
-0.068922
-0.069996
-0.070552
-0.070745
-0.070878
-0.070755
-0.070528
-0.070356
-0.070122
-0.069646
-0.069139
-0.068733
-0.068149
-0.067523
-0.066837
-0.066232
-0.065620
-0.064927
-0.064252
-0.063573
-0.062915
-0.062202
-0.061309
-0.060270
-0.059312
-0.058276
-0.057451
-0.056849
-0.056475
-0.055946
-0.055394
-0.054904
-0.054411
-0.054131
-0.053840
-0.053456
-0.052896
-0.052203
-0.051507
-0.050807
-0.050153
-0.049863
-0.049873
-0.049915
-0.049985
-0.050181
-0.050569
-0.050898
-0.051168
-0.051556
-0.051850
-0.051955
-0.051990
-0.051944
-0.051853
-0.051671
-0.051580
-0.051524
-0.051489
-0.051370
-0.050996
-0.050461
-0.049842
-0.049121
-0.048603
-0.048127
-0.047550
-0.046903
-0.046280
-0.045434
-0.044556
-0.043643
-0.042698
-0.041883
-0.041313
-0.040893
-0.040434
-0.039945
-0.039448
-0.039084
-0.038493
-0.037877
-0.037349
-0.036919
-0.036317
-0.035138
-0.033868
-0.032654
-0.031625
-0.030880
-0.030356
-0.030230
-0.030349
-0.030600
-0.030887
-0.031314
-0.031772
-0.032021
-0.032126
-0.031912
-0.031779
-0.031545
-0.031283
-0.030964
-0.030461
-0.029813
-0.029187
-0.028680
-0.028012
-0.027455
-0.026910
-0.026367
-0.025909
-0.025591
-0.025307
-0.025157
-0.024909
-0.024485
-0.023971
-0.023317
-0.022862
-0.022530
-0.022376
-0.022148
-0.021851
-0.021505
-0.021088
-0.020539
-0.019951
-0.019444
-0.018881
-0.018384
-0.017821
-0.017303
-0.016736
-0.016208
-0.015701
-0.015211
-0.014914
-0.014655
-0.014438
-0.014371
-0.014473
-0.014613
-0.014557
-0.014469
-0.014553
-0.014753
-0.014872
-0.014896
-0.015015
-0.015116
-0.015029
-0.014938
-0.014949
-0.014819
-0.014700
-0.014588
-0.014466
-0.014291
-0.014238
-0.014091
-0.013889
-0.013619
-0.013350
-0.013010
-0.012710
-0.012514
-0.012272
-0.011996
-0.011730
-0.011580
-0.011447
-0.011268
-0.011139
-0.010957
-0.010778
-0.010569
-0.010317
-0.010114
-0.009879
-0.009627
-0.009334
-0.009155
-0.008980
-0.008760
-0.008564
-0.008508
-0.008340
-0.008078
-0.007864
-0.007728
-0.007735
-0.007668
-0.007665
-0.007647
-0.007658
-0.007759
-0.008067
-0.008372
-0.008487
-0.008536
-0.008606
-0.008501
-0.008333
-0.008235
-0.008291
-0.008267
-0.008137
-0.008032
-0.007885
-0.007759
-0.007647
-0.007539
-0.007388
-0.007151
-0.006892
-0.006717
-0.006486
-0.006363
-0.006286
-0.006265
-0.006189
-0.006094
-0.006077
-0.005996
-0.005867
-0.005744
-0.005604
-0.005387
-0.005223
-0.004964
-0.004782
-0.004681
-0.004712
-0.004817
-0.004842
-0.004793
-0.004775
-0.004845
-0.004800
-0.004873
-0.004964
-0.004971
-0.004922
-0.004845
-0.004810
-0.004779
-0.004758
-0.004807
-0.004898
-0.005045
-0.005251
-0.005359
-0.005429
-0.005510
-0.005545
-0.005534
-0.005457
-0.005408
-0.005300
-0.005122
-0.004912
-0.004793
-0.004555
-0.004275
-0.004173
-0.004048
-0.003866
-0.003694
-0.003677
-0.003715
-0.003607
-0.003498
-0.003428
-0.003267
-0.003064
-0.002911
-0.002841
-0.002729
-0.002697
-0.002704
-0.002736
-0.002760
-0.002813
-0.002907
-0.002953
-0.002928
-0.002932
-0.002900
-0.002904
-0.002932
-0.003005
-0.003127
-0.003194
-0.003232
-0.003260
-0.003278
-0.003407
-0.003498
-0.003544
-0.003561
-0.003649
-0.003642
-0.003568
-0.003502
-0.003383
-0.003372
-0.003313
-0.003173
-0.002987
-0.002855
-0.002778
-0.002645
-0.002617
-0.002582
-0.002592
-0.002533
-0.002519
-0.002403
-0.002396
-0.002365
-0.002316
-0.002232
-0.002155
-0.002116
-0.001994
-0.001934
-0.001924
-0.001896
-0.001847
-0.001875
-0.001878
-0.001847
-0.001875
-0.001931
-0.001955
-0.001917
-0.001910
-0.002025
-0.002102
-0.002116
-0.002137
-0.002169
-0.002214
-0.002225
-0.002186
-0.002235
-0.002218
-0.002155
-0.002116
-0.002127
-0.002186
-0.002225
-0.002281
-0.002361
-0.002382
-0.002305
-0.002263
-0.002295
-0.002190
-0.002067
-0.002067
-0.002022
-0.001920
-0.001802
-0.001711
-0.001599
-0.001494
-0.001392
-0.001371
-0.001371
-0.001371
-0.001406
-0.001417
-0.001424
-0.001434
-0.001333
-0.001315
-0.001245
-0.001189
-0.001154
-0.001193
-0.001294
-0.001322
-0.001382
-0.001438
-0.001494
-0.001574
-0.001665
-0.001697
-0.001637
-0.001578
-0.001567
-0.001539
-0.001560
-0.001564
-0.001581
-0.001613
-0.001599
-0.001557
-0.001504
-0.001504
-0.001546
-0.001557
-0.001539
-0.001490
-0.001494
-0.001452
-0.001424
-0.001403
-0.001403
-0.001294
-0.001165
-0.001091
-0.001084
-0.001112
-0.001091
-0.001070
-0.000944
-0.000801
-0.000693
-0.000644
-0.000696
-0.000724
-0.000703
-0.000769
-0.000832
-0.000888
-0.000993
-0.001077
-0.001084
-0.001112
-0.001126
-0.001179
-0.001263
-0.001298
-0.001287
-0.001315
-0.001287
-0.001284
-0.001273
-0.001256
-0.001301
-0.001287
-0.001228
-0.001193
-0.001161
-0.001102
-0.001088
-0.001070
-0.001077
-0.001123
-0.001179
-0.001214
-0.001256
-0.001179
-0.001046
-0.000962
-0.000881
-0.000836
-0.000773
-0.000766
-0.000804
-0.000857
-0.000850
-0.000804
-0.000811
-0.000773
-0.000728
-0.000728
-0.000717
-0.000735
-0.000749
-0.000773
-0.000780
-0.000745
-0.000703
-0.000724
-0.000759
-0.000804
-0.000822
-0.000822
-0.000811
-0.000769
-0.000818
-0.000843
-0.000857
-0.000850
-0.000846
-0.000906
-0.000962
-0.001053
-0.001102
-0.001119
-0.001088
-0.001088
-0.001060
-0.001077
-0.001123
-0.001140
-0.001098
-0.000979
-0.000906
-0.000773
-0.000665
-0.000556
-0.000490
-0.000462
-0.000476
-0.000507
-0.000546
-0.000609
-0.000616
-0.000630
-0.000661
-0.000665
-0.000658
-0.000735
-0.000804
-0.000811
-0.000860
-0.000846
-0.000804
-0.000766
-0.000738
-0.000689
-0.000707
-0.000742
-0.000710
-0.000686
-0.000700
-0.000665
-0.000672
-0.000679
-0.000689
-0.000696
-0.000679
-0.000742
-0.000783
-0.000787
-0.000815
-0.000790
-0.000731
-0.000668
-0.000626
-0.000623
-0.000616
-0.000623
-0.000598
-0.000574
-0.000584
-0.000584
-0.000507
-0.000455
-0.000402
-0.000318
-0.000196
-0.000203
-0.000206
-0.000224
-0.000234
-0.000269
-0.000287
-0.000364
-0.000406
-0.000434
-0.000469
-0.000451
-0.000455
-0.000479
-0.000511
-0.000570
-0.000563
-0.000570
-0.000563
-0.000609
-0.000616
-0.000605
-0.000591
-0.000616
-0.000584
-0.000560
-0.000567
-0.000514
-0.000514
-0.000507
-0.000549
-0.000542
-0.000528
-0.000497
-0.000458
-0.000413
-0.000399
-0.000360
-0.000367
-0.000276
-0.000276
-0.000294
-0.000283
-0.000339
-0.000346
-0.000350
-0.000374
-0.000339
-0.000294
-0.000269
-0.000301
-0.000287
-0.000287
-0.000269
-0.000252
-0.000315
-0.000353
-0.000392
-0.000430
-0.000402
-0.000353
-0.000308
-0.000259
-0.000248
-0.000238
-0.000287
-0.000371
-0.000378
-0.000339
-0.000360
-0.000458
-0.000451
-0.000392
-0.000406
-0.000444
-0.000444
-0.000451
-0.000420
-0.000409
-0.000367
-0.000315
-0.000273
-0.000304
-0.000294
-0.000287
-0.000259
-0.000290
-0.000290
-0.000231
-0.000157
-0.000136
-0.000136
-0.000112
-0.000115
-0.000185
-0.000157
-0.000136
-0.000140
-0.000175
-0.000196
-0.000245
-0.000231
-0.000273
-0.000276
-0.000248
-0.000311
-0.000388
-0.000441
-0.000357
-0.000269
-0.000241
-0.000220
-0.000196
-0.000175
-0.000234
-0.000220
-0.000241
-0.000297
-0.000322
-0.000339
-0.000329
-0.000381
-0.000413
-0.000364
-0.000374
-0.000322
-0.000378
-0.000357
-0.000304
-0.000273
-0.000248
-0.000255
-0.000196
-0.000185
-0.000255
-0.000297
-0.000290
-0.000266
-0.000262
-0.000189
-0.000178
-0.000220
-0.000199
-0.000178
-0.000147
-0.000157
-0.000206
-0.000164
-0.000157
-0.000115
-0.000098
-0.000084
-0.000052
-0.000087
-0.000136
-0.000175
-0.000126
-0.000136
-0.000140
-0.000094
-0.000056
-0.000122
-0.000182
-0.000150
-0.000189
-0.000220
-0.000273
-0.000308
-0.000266
-0.000290
-0.000301
-0.000311
-0.000329
-0.000329
-0.000304
-0.000273
-0.000224
-0.000199
-0.000150
-0.000115
-0.000063
-0.000084
-0.000049
-0.000073
-0.000136
-0.000175
-0.000266
-0.000332
-0.000311
-0.000311
-0.000336
-0.000283
-0.000266
-0.000238
-0.000220
-0.000213
-0.000175
-0.000199
-0.000206
-0.000171
-0.000168
-0.000115
-0.000077
-0.000056
-0.000045
-0.000042
-0.000073
-0.000080
-0.000073
-0.000108
-0.000066
-0.000059
-0.000066
-0.000042
-0.000080
-0.000119
-0.000143
-0.000168
-0.000154
-0.000185
-0.000185
-0.000147
-0.000140
-0.000182
-0.000168
-0.000182
-0.000245
-0.000238
-0.000234
-0.000227
-0.000178
-0.000122
-0.000115
-0.000094
-0.000108
-0.000101
-0.000136
-0.000143
-0.000164
-0.000199
-0.000164
-0.000199
-0.000150
-0.000168
-0.000154
-0.000115
-0.000112
-0.000105
-0.000049
-0.000028
0.000011
0.000035
0.000056
0.000042
-0.000014
-0.000042
-0.000042
-0.000049
-0.000038
-0.000049
-0.000042
-0.000014
-0.000038
-0.000105
-0.000049
-0.000126
-0.000122
-0.000115
-0.000112
-0.000112
-0.000115
-0.000077
-0.000024
0.000007
-0.000024
0.000011
0.000056
0.000067
0.000056
0.000077
0.000091
0.000081
0.000018
-0.000063
-0.000133
-0.000143
-0.000231
-0.000231
-0.000189
-0.000182
-0.000133
-0.000073
-0.000017
-0.000010
-0.000014
-0.000021
-0.000028
-0.000014
0.000021
0.000018
0.000063
0.000070
0.000070
0.000049
0.000028
0.000000
-0.000052
-0.000066
-0.000094
-0.000126
-0.000129
-0.000147
-0.000161
-0.000126
-0.000178
-0.000175
-0.000196
-0.000203
-0.000168
-0.000091
-0.000003
0.000018
0.000032
0.000021
-0.000007
0.000049
0.000021
0.000035
0.000042
0.000032
0.000018
0.000011
-0.000014
-0.000024
-0.000087
-0.000108
-0.000098
-0.000112
-0.000133
-0.000070
-0.000056
-0.000014
0.000007
0.000004
-0.000014
0.000032
-0.000014
-0.000028
-0.000024
-0.000014
-0.000042
-0.000021
-0.000024
-0.000063
-0.000122
-0.000192
-0.000178
-0.000203
-0.000245
-0.000168
-0.000122
-0.000098
-0.000045
-0.000049
-0.000049
-0.000028
-0.000084
-0.000080
-0.000077
-0.000098
-0.000073
-0.000119
-0.000052
-0.000038
-0.000059
-0.000080
-0.000105
-0.000119
-0.000136
-0.000108
-0.000105
-0.000077
-0.000070
-0.000084
-0.000028
0.000042
-0.000003
0.000046
0.000077
0.000091
0.000070
0.000063
0.000130
0.000112
0.000116
0.000098
0.000105
0.000056
-0.000031
-0.000035
-0.000003
-0.000028
-0.000049
-0.000042
0.000004
-0.000028
-0.000028
0.000004
0.000018
0.000053
0.000070
0.000081
0.000081
0.000091
0.000095
0.000074
0.000105
0.000035
0.000007
-0.000087
-0.000112
-0.000052
-0.000021
-0.000003
0.000021
0.000056
0.000046
0.000039
0.000035
0.000025
0.000056
0.000014
0.000032
0.000070
0.000067
0.000095
0.000112
0.000105
0.000088
0.000056
0.000011
0.000028
0.000018
0.000025
0.000056
0.000049
0.000049
0.000028
0.000014
0.000018
0.000021
0.000011
0.000056
0.000049
0.000053
0.000063
0.000116
0.000147
0.000130
0.000109
0.000133
0.000140
0.000035
0.000039
0.000018
0.000014
-0.000014
-0.000056
-0.000007
0.000007
-0.000003
0.000035
0.000095
0.000077
0.000053
0.000067
0.000074
0.000088
0.000007
-0.000017
-0.000014
-0.000035
-0.000063
0.000004
0.000032
0.000091
0.000116
0.000140
0.000137
0.000112
0.000032
0.000004
0.000021
0.000056
0.000028
0.000035
0.000060
0.000046
0.000053
0.000070
0.000074
0.000070
0.000021
0.000011
0.000011
-0.000007
0.000046
0.000039
0.000091
0.000130
0.000119
0.000109
0.000119
0.000070
0.000021
0.000007
0.000011
-0.000017
-0.000031
-0.000010
0.000018
0.000039
0.000018
-0.000017
-0.000066
-0.000070
-0.000042
-0.000017
-0.000028
0.000011
0.000032
0.000011
-0.000035
0.000011
-0.000003
0.000035
0.000049
-0.000007
0.000011
0.000035
0.000067
0.000084
0.000067
0.000067
0.000067
0.000060
0.000084
0.000116
0.000091
0.000123
0.000116
0.000112
0.000088
0.000091
0.000042
0.000035
0.000046
0.000049
0.000070
0.000095
0.000081
0.000088
0.000063
0.000095
0.000035
0.000007
0.000049
0.000077
0.000074
0.000109
0.000067
0.000060
0.000053
0.000056
0.000049
0.000007
0.000042
0.000074
0.000063
0.000067
0.000098
0.000126
0.000095
0.000077
0.000091
0.000112
0.000112
0.000091
0.000126
0.000161
0.000133
0.000105
0.000140
0.000105
0.000084
0.000077
0.000088
0.000116
0.000112
0.000161
0.000168
0.000130
0.000084
0.000081
0.000091
0.000070
0.000084
0.000067
0.000070
0.000112
0.000088
0.000126
0.000196
0.000242
0.000245
0.000221
0.000217
0.000210
0.000165
0.000165
0.000144
0.000179
0.000140
0.000116
0.000126
0.000116
0.000130
0.000130
0.000144
0.000144
0.000102
0.000095
0.000105
0.000109
0.000130
0.000158
0.000172
0.000158
0.000189
0.000182
0.000196
0.000140
0.000091
0.000119
0.000102
0.000035
0.000053
0.000077
0.000102
0.000151
0.000151
0.000196
0.000196
0.000207
0.000196
0.000151
0.000098
0.000011
0.000014
0.000039
0.000112
0.000168
0.000189
0.000182
0.000168
0.000126
0.000084
-0.000003
0.000011
0.000091
0.000084
0.000095
0.000126
0.000130
0.000102
0.000119
0.000105
0.000077
0.000049
0.000060
0.000091
0.000151
0.000144
0.000172
0.000189
0.000189
0.000189
0.000161
0.000165
0.000207
0.000200
0.000175
0.000151
0.000133
0.000116
0.000084
0.000119
0.000126
0.000144
0.000137
0.000168
0.000175
0.000144
0.000161
0.000112
0.000063
0.000095
0.000049
0.000039
0.000105
0.000140
0.000109
0.000154
0.000196
0.000200
0.000214
0.000235
0.000242
0.000252
0.000193
0.000221
0.000245
0.000210
0.000221
0.000193
0.000161
0.000102
0.000095
0.000081
0.000042
0.000014
-0.000021
-0.000014
0.000011
-0.000007
0.000021
0.000060
0.000105
0.000095
0.000088
0.000137
0.000123
0.000081
0.000105
0.000168
0.000126
0.000151
0.000161
0.000154
0.000151
0.000126
0.000102
0.000112
0.000074
0.000109
0.000165
0.000186
0.000196
0.000168
0.000151
0.000168
0.000154
0.000112
0.000151
0.000182
0.000112
0.000123
0.000105
0.000112
0.000179
0.000123
0.000140
0.000196
0.000217
0.000196
0.000224
0.000228
0.000221
0.000172
0.000144
0.000161
0.000130
0.000112
0.000105
0.000116
0.000105
0.000126
0.000147
0.000140
0.000193
0.000158
0.000098
0.000109
0.000116
0.000137
0.000182
0.000193
0.000168
0.000161
0.000151
0.000172
0.000193
0.000147
0.000175
0.000165
0.000203
0.000235
0.000231
0.000252
0.000259
0.000266
0.000228
0.000210
0.000235
0.000221
0.000224
0.000263
0.000266
0.000242
0.000252
0.000259
0.000294
0.000280
0.000301
0.000270
0.000217
0.000231
0.000245
0.000210
0.000270
0.000245
0.000158
0.000158
0.000165
0.000151
0.000140
0.000126
0.000133
0.000109
0.000077
0.000116
0.000154
0.000116
0.000130
0.000175
0.000158
0.000161
0.000182
0.000210
0.000210
0.000200
0.000175
0.000210
0.000200
0.000193
0.000242
0.000256
0.000224
0.000221
0.000196
0.000231
0.000242
0.000165
0.000210
0.000252
0.000217
0.000210
0.000242
0.000228
0.000228
0.000200
0.000189
0.000224
0.000196
0.000175
0.000203
0.000266
0.000270
0.000266
0.000200
0.000252
0.000165
0.000123
0.000172
0.000161
0.000123
0.000109
0.000140
0.000154
0.000144
0.000165
0.000133
0.000189
0.000210
0.000189
0.000210
0.000238
0.000203
0.000175
0.000172
0.000214
0.000221
0.000217
0.000217
0.000235
0.000214
0.000214
0.000193
0.000186
0.000179
0.000165
0.000133
0.000189
0.000221
0.000217
0.000228
0.000256
0.000266
0.000214
0.000207
0.000256
0.000217
0.000224
0.000252
0.000284
0.000259
0.000256
0.000266
0.000259
0.000280
0.000287
0.000263
0.000252
0.000252
0.000242
0.000228
0.000224
0.000242
0.000207
0.000189
0.000217
0.000245
0.000242
0.000259
0.000287
0.000249
0.000203
0.000175
0.000158
0.000200
0.000200
0.000214
0.000217
0.000228
0.000217
0.000189
0.000200
0.000203
0.000151
0.000175
0.000193
0.000172
0.000154
0.000123
0.000116
0.000116
0.000126
0.000179
0.000186
0.000172
0.000189
0.000224
0.000263
0.000284
0.000266
0.000277
0.000284
0.000273
0.000217
0.000186
0.000165
0.000175
0.000175
0.000235
0.000266
0.000294
0.000263
0.000224
0.000235
0.000214
0.000214
0.000238
0.000245
0.000245
0.000228
0.000158
0.000196
0.000123
0.000095
0.000151
0.000154
0.000179
0.000175
0.000210
0.000224
0.000193
0.000193
0.000175
0.000189
0.000182
0.000193
0.000245
0.000228
0.000312
0.000270
0.000235
0.000266
0.000228
0.000172
0.000175
0.000193
0.000224
0.000231
0.000245
0.000249
0.000256
0.000242
0.000259
0.000249
0.000224
0.000238
0.000252
0.000238
0.000221
0.000256
0.000224
0.000259
0.000263
0.000224
0.000224
0.000231
0.000231
0.000193
0.000193
0.000154
0.000098
0.000039
0.000060
0.000067
0.000074
0.000098
0.000102
0.000137
0.000189
0.000172
0.000182
0.000203
0.000193
0.000200
0.000175
0.000284
0.000224
0.000196
0.000238
0.000277
0.000273
0.000210
0.000242
0.000280
0.000249
0.000217
0.000182
0.000231
0.000238
0.000263
0.000256
0.000280
0.000312
0.000298
0.000305
0.000315
0.000329
0.000270
0.000259
0.000277
0.000224
0.000175
0.000182
0.000172
0.000175
0.000161
0.000165
0.000224
0.000256
0.000217
0.000221
0.000252
0.000238
0.000203
0.000252
0.000259
0.000259
0.000235
0.000207
0.000249
0.000266
0.000263
0.000273
0.000270
0.000259
0.000242
0.000238
0.000245
0.000252
0.000245
0.000238
0.000238
0.000235
0.000210
0.000200
0.000231
0.000224
0.000245
0.000186
0.000238
0.000252
0.000245
0.000207
0.000228
0.000217
0.000200
0.000186
0.000196
0.000203
0.000203
0.000210
0.000242
0.000238
0.000245
0.000249
0.000266
0.000270
0.000238
0.000252
0.000235
0.000249
0.000214
0.000231
0.000263
0.000256
0.000252
0.000270
0.000249
0.000245
0.000263
0.000273
0.000280
0.000291
0.000245
0.000287
0.000312
0.000284
0.000291
0.000277
0.000294
0.000319
0.000252
0.000294
0.000277
0.000228
0.000266
0.000207
0.000179
0.000196
0.000186
0.000214
0.000256
0.000270
0.000235
0.000249
0.000245
0.000235
0.000231
0.000217
0.000263
0.000238
0.000189
0.000203
0.000252
0.000242
0.000245
0.000266
0.000273
0.000273
0.000221
0.000242
0.000263
0.000228
0.000186
0.000172
0.000165
0.000214
0.000217
0.000224
0.000203
0.000221
0.000179
0.000207
0.000231
0.000228
0.000231
0.000221
0.000238
0.000277
0.000245
0.000270
0.000291
0.000263
0.000224
0.000221
0.000235
0.000245
0.000210
0.000203
0.000207
0.000249
0.000252
0.000231
0.000280
0.000259
0.000245
0.000238
0.000287
0.000343
0.000301
0.000339
0.000353
0.000339
0.000329
0.000326
0.000364
0.000326
0.000287
0.000287
0.000298
0.000315
0.000252
0.000294
0.000308
0.000291
0.000308
0.000333
0.000336
0.000343
0.000308
0.000298
0.000298
0.000273
0.000259
0.000298
0.000301
0.000259
0.000238
0.000231
0.000238
0.000207
0.000193
0.000231
0.000284
0.000231
0.000242
0.000210
0.000217
0.000210
0.000207
0.000252
0.000280
0.000263
0.000210
0.000224
0.000249
0.000228
0.000235
0.000242
0.000252
0.000266
0.000259
0.000287
0.000339
0.000312
0.000319
0.000294
0.000249
0.000277
0.000263
0.000242
0.000298
0.000284
0.000256
0.000319
0.000319
0.000270
0.000242
0.000245
0.000235
0.000245
0.000263
0.000277
0.000277
0.000242
0.000231
0.000196
0.000207
0.000224
0.000210
0.000189
0.000210
0.000256
0.000249
0.000228
0.000263
0.000280
0.000235
0.000217
0.000252
0.000231
0.000200
0.000228
0.000252
0.000235
0.000214
0.000238
0.000249
0.000284
0.000287
0.000280
0.000287
0.000315
0.000249
0.000252
0.000263
0.000228
0.000207
0.000193
0.000217
0.000224
0.000238
0.000270
0.000277
0.000294
0.000308
0.000301
0.000305
0.000287
0.000280
0.000249
0.000252
0.000291
0.000277
0.000263
0.000280
0.000238
0.000238
0.000259
0.000284
0.000294
0.000284
0.000315
0.000343
0.000298
0.000280
0.000312
0.000294
0.000273
0.000245
0.000263
0.000235
0.000221
0.000193
0.000168
0.000196
0.000172
0.000147
0.000189
0.000221
0.000270
0.000224
0.000266
0.000277
0.000231
0.000224
0.000263
0.000228
0.000259
0.000294
0.000256
0.000308
0.000326
0.000256
0.000294
0.000308
0.000298
0.000273
0.000242
0.000263
0.000245
0.000217
0.000228
0.000235
0.000238
0.000259
0.000270
0.000291
0.000284
0.000277
0.000263
0.000259
0.000270
0.000266
0.000256
0.000259
0.000263
0.000263
0.000242
0.000228
0.000203
0.000203
0.000179
0.000165
0.000158
0.000119
0.000154
0.000186
0.000193
0.000245
0.000266
0.000280
0.000273
0.000221
0.000245
0.000284
0.000298
0.000284
0.000284
0.000329
0.000315
0.000308
0.000319
0.000336
0.000287
0.000294
0.000322
0.000322
0.000333
0.000284
0.000263
0.000315
0.000256
0.000277
0.000287
0.000284
0.000301
0.000305
0.000284
0.000308
0.000291
0.000291
0.000305
0.000315
0.000263
0.000266
0.000259
0.000273
0.000256
0.000256
0.000217
0.000217
0.000210
0.000231
0.000231
0.000252
0.000287
0.000270
0.000326
0.000357
0.000336
0.000305
0.000298
0.000291
0.000270
0.000284
0.000259
0.000266
0.000263
0.000291
0.000266
0.000235
0.000242
0.000172
0.000144
0.000154
0.000154
0.000144
0.000116
0.000182
0.000175
0.000207
0.000228
0.000238
0.000238
0.000259
0.000259
0.000266
0.000270
0.000238
0.000280
0.000280
0.000305
0.000305
0.000298
0.000326
0.000312
0.000266
0.000270
0.000294
0.000249
0.000245
0.000252
0.000245
0.000235
0.000231
0.000224
0.000291
0.000266
0.000322
0.000319
0.000336
0.000339
0.000312
0.000287
0.000319
0.000319
0.000263
0.000291
0.000284
0.000256
0.000235
0.000270
0.000249
0.000252
0.000270
0.000294
0.000305
0.000263
0.000284
0.000287
0.000256
0.000291
0.000263
0.000196
0.000210
0.000210
0.000214
0.000238
0.000322
0.000301
0.000298
0.000319
0.000333
0.000315
0.000308
0.000273
0.000284
0.000280
0.000319
0.000319
0.000357
0.000343
0.000319
0.000322
0.000353
0.000350
0.000326
0.000322
0.000333
0.000305
0.000298
0.000284
0.000263
0.000203
0.000242
0.000249
0.000252
0.000284
0.000291
0.000291
0.000294
0.000333
0.000326
0.000305
0.000326
0.000312
0.000305
0.000291
0.000319
0.000305
0.000280
0.000291
0.000259
0.000242
0.000259
0.000266
0.000298
0.000308
0.000270
0.000287
0.000333
0.000333
0.000343
0.000298
0.000312
0.000294
0.000266
0.000298
0.000326
0.000322
0.000319
0.000301
0.000315
0.000287
0.000256
0.000259
0.000263
0.000284
0.000294
0.000280
0.000298
0.000284
0.000231
0.000252
0.000291
0.000294
0.000270
0.000287
0.000319
0.000294
0.000277
0.000277
0.000326
0.000273
0.000266
0.000273
0.000256
0.000235
0.000245
0.000266
0.000256
0.000298
0.000319
0.000245
0.000291
0.000301
0.000273
0.000329
0.000371
0.000326
0.000326
0.000343
0.000339
0.000298
0.000291
0.000322
0.000322
0.000312
0.000270
0.000245
0.000256
0.000259
0.000259
0.000249
0.000263
0.000298
0.000263
0.000280
0.000360
0.000329
0.000291
0.000305
0.000315
0.000284
0.000259
0.000284
0.000249
0.000270
0.000301
0.000322
0.000319
0.000336
0.000350
0.000329
0.000374
0.000360
0.000343
0.000357
0.000385
0.000381
0.000329
0.000291
0.000315
0.000249
0.000238
0.000252
0.000245
0.000259
0.000287
0.000291
0.000315
0.000326
0.000319
0.000353
0.000339
0.000343
0.000329
0.000298
0.000270
0.000259
0.000217
0.000280
0.000291
0.000263
0.000249
0.000217
0.000231
0.000238
0.000256
0.000305
0.000301
0.000333
0.000357
0.000322
0.000350
0.000350
0.000326
0.000399
0.000416
0.000381
0.000374
0.000367
0.000381
0.000353
0.000301
0.000329
0.000322
0.000346
0.000312
0.000259
0.000263
0.000270
0.000238
0.000221
0.000263
0.000263
0.000273
0.000301
0.000343
0.000336
0.000291
0.000315
0.000294
0.000322
0.000343
0.000333
0.000353
0.000360
0.000350
0.000350
0.000346
0.000346
0.000301
0.000270
0.000312
0.000284
0.000294
0.000235
0.000231
0.000231
0.000228
0.000217
0.000273
0.000263
0.000242
0.000238
0.000242
0.000263
0.000273
0.000280
0.000301
0.000353
0.000333
0.000326
0.000343
0.000336
0.000308
0.000305
0.000294
0.000308
0.000298
0.000291
0.000360
0.000326
0.000326
0.000336
0.000367
0.000381
0.000371
0.000350
0.000333
0.000353
0.000343
0.000360
0.000353
0.000395
0.000374
0.000350
0.000357
0.000343
0.000305
0.000315
0.000378
0.000367
0.000326
0.000371
0.000378
0.000350
0.000350
0.000329
0.000343
0.000343
0.000346
0.000346
0.000364
0.000364
0.000322
0.000329
0.000350
0.000326
0.000305
0.000294
0.000326
0.000322
0.000280
0.000298
0.000308
0.000284
0.000291
0.000326
0.000360
0.000339
0.000367
0.000367
0.000371
0.000326
0.000315
0.000322
0.000329
0.000357
0.000343
0.000322
0.000346
0.000346
0.000308
0.000353
0.000371
0.000346
0.000343
0.000357
0.000385
0.000378
0.000385
0.000333
0.000329
0.000294
0.000284
0.000298
0.000308
0.000322
0.000343
0.000319
0.000315
0.000336
0.000277
0.000301
0.000326
0.000374
0.000378
0.000367
0.000353
0.000353
0.000350
0.000339
0.000353
0.000346
0.000319
0.000339
0.000346
0.000322
0.000312
0.000326
0.000312
0.000308
0.000346
0.000353
0.000326
0.000333
0.000353
0.000343
0.000357
0.000392
0.000388
0.000371
0.000353
0.000367
0.000343
0.000333
0.000371
0.000357
0.000319
0.000336
0.000333
0.000301
0.000291
0.000319
0.000305
0.000308
0.000298
0.000326
0.000336
0.000346
0.000333
0.000305
0.000353
0.000360
0.000312
0.000298
0.000322
0.000315
0.000326
0.000312
0.000367
0.000333
0.000350
0.000357
0.000353
0.000374
0.000333
0.000353
0.000319
0.000329
0.000326
0.000291
0.000329
0.000319
0.000284
0.000298
0.000308
0.000312
0.000308
0.000301
0.000357
0.000333
0.000291
0.000333
0.000350
0.000322
0.000343
0.000312
0.000333
0.000308
0.000291
0.000308
0.000343
0.000336
0.000350
0.000343
0.000388
0.000388
0.000392
0.000360
0.000378
0.000374
0.000353
0.000339
0.000322
0.000301
0.000256
0.000277
0.000284
0.000284
0.000308
0.000315
0.000343
0.000385
0.000357
0.000357
0.000367
0.000388
0.000371
0.000367
0.000395
0.000360
0.000395
0.000409
0.000385
0.000378
0.000371
0.000371
0.000364
0.000392
0.000367
0.000336
0.000374
0.000367
0.000326
0.000357
0.000381
0.000371
0.000357
0.000339
0.000346
0.000339
0.000319
0.000367
0.000367
0.000336
0.000346
0.000339
0.000346
0.000367
0.000336
0.000333
0.000315
0.000308
0.000284
0.000270
0.000277
0.000263
0.000231
0.000245
0.000284
0.000319
0.000308
0.000312
0.000350
0.000346
0.000346
0.000374
0.000385
0.000385
0.000385
0.000346
0.000367
0.000336
0.000294
0.000294
0.000319
0.000315
0.000312
0.000305
0.000343
0.000329
0.000333
0.000322
0.000374
0.000346
0.000336
0.000353
0.000333
0.000346
0.000357
0.000353
0.000350
0.000360
0.000350
0.000305
0.000360
0.000357
0.000339
0.000305
0.000319
0.000353
0.000312
0.000294
0.000294
0.000284
0.000259
0.000259
0.000266
0.000291
0.000312
0.000266
0.000291
0.000336
0.000315
0.000312
0.000336
0.000329
0.000343
0.000326
0.000343
0.000343
0.000336
0.000301
0.000308
0.000333
0.000287
0.000322
0.000339
0.000322
0.000312
0.000298
0.000360
0.000346
0.000364
0.000336
0.000385
0.000367
0.000360
0.000353
0.000364
0.000333
0.000315
0.000326
0.000353
0.000346
0.000312
0.000319
0.000367
0.000357
0.000353
0.000353
0.000367
0.000385
0.000336
0.000360
0.000364
0.000326
0.000357
0.000357
0.000360
0.000326
0.000298
0.000319
0.000319
0.000305
0.000305
0.000298
0.000305
0.000312
0.000333
0.000305
0.000367
0.000367
0.000367
0.000360
0.000353
0.000336
0.000364
0.000374
0.000395
0.000322
0.000287
0.000287
0.000346
0.000339
0.000381
0.000385
0.000392
0.000371
0.000367
0.000346
0.000367
0.000329
0.000308
0.000312
0.000326
0.000333
0.000305
0.000284
0.000326
0.000336
0.000364
0.000374
0.000385
0.000406
0.000329
0.000326
0.000346
0.000312
0.000329
0.000319
0.000329
0.000343
0.000326
0.000333
0.000353
0.000326
0.000329
0.000298
0.000329
0.000333
0.000326
0.000336
0.000353
0.000322
0.000322
0.000350
0.000364
0.000339
0.000333
0.000336
0.000346
0.000367
0.000378
0.000371
0.000409
0.000385
0.000374
0.000357
0.000381
0.000371
0.000353
0.000388
0.000395
0.000367
0.000346
0.000336
0.000367
0.000322
0.000353
0.000392
0.000385
0.000367
0.000336
0.000329
0.000360
0.000336
0.000329
0.000326
0.000301
0.000353
0.000371
0.000350
0.000374
0.000385
0.000346
0.000353
0.000378
0.000371
0.000357
0.000364
0.000385
0.000367
0.000322
0.000336
0.000364
0.000343
0.000381
0.000392
0.000395
0.000388
0.000339
0.000343
0.000339
0.000360
0.000343
0.000315
0.000360
0.000326
0.000336
0.000339
0.000353
0.000353
0.000315
0.000326
0.000329
0.000326
0.000326
0.000343
0.000367
0.000350
0.000339
0.000343
0.000333
0.000353
0.000364
0.000336
0.000374
0.000343
0.000298
0.000305
0.000312
0.000339
0.000305
0.000291
0.000339
0.000315
0.000305
0.000326
0.000346
0.000374
0.000322
0.000329
0.000333
0.000353
0.000357
0.000339
0.000333
0.000333
0.000336
0.000326
0.000364
0.000360
0.000350
0.000333
0.000350
0.000350
0.000301
0.000291
0.000305
0.000291
0.000249
0.000277
0.000277
0.000280
0.000294
0.000326
0.000343
0.000343
0.000329
0.000326
0.000385
0.000346
0.000343
0.000343
0.000357
0.000343
0.000357
0.000388
0.000364
0.000343
0.000333
0.000339
0.000378
0.000339
0.000360
0.000381
0.000392
0.000413
0.000374
0.000420
0.000381
0.000402
0.000385
0.000357
0.000346
0.000326
0.000273
0.000277
0.000315
0.000315
0.000280
0.000301
0.000343
0.000312
0.000339
0.000353
0.000353
0.000353
0.000343
0.000364
0.000385
0.000371
0.000360
0.000374
0.000381
0.000402
0.000385
0.000385
0.000346
0.000381
0.000367
0.000353
0.000350
0.000353
0.000364
0.000339
0.000343
0.000343
0.000322
0.000305
0.000326
0.000350
0.000350
0.000371
0.000402
0.000402
0.000406
0.000385
0.000360
0.000360
0.000333
0.000291
0.000301
0.000298
0.000298
0.000301
0.000333
0.000371
0.000413
0.000360
0.000395
0.000399
0.000381
0.000385
0.000402
0.000413
0.000402
0.000371
0.000395
0.000402
0.000364
0.000343
0.000385
0.000350
0.000357
0.000326
0.000350
0.000385
0.000329
0.000360
0.000343
0.000326
0.000333
0.000294
0.000350
0.000357
0.000350
0.000371
0.000385
0.000385
0.000381
0.000413
0.000399
0.000409
0.000420
0.000409
0.000409
0.000402
0.000378
0.000308
0.000322
0.000277
0.000238
0.000259
0.000301
0.000326
0.000326
0.000350
0.000381
0.000374
0.000339
0.000371
0.000388
0.000364
0.000333
0.000333
0.000367
0.000353
0.000305
0.000333
0.000339
0.000336
0.000350
0.000353
0.000353
0.000319
0.000308
0.000298
0.000326
0.000312
0.000294
0.000319
0.000371
0.000357
0.000357
0.000353
0.000360
0.000371
0.000385
0.000371
0.000409
0.000392
0.000388
0.000402
0.000399
0.000388
0.000333
0.000333
0.000343
0.000333
0.000329
0.000280
0.000315
0.000343
0.000329
0.000336
0.000364
0.000346
0.000350
0.000360
0.000364
0.000339
0.000350
0.000336
0.000298
0.000291
0.000256
0.000270
0.000308
0.000301
0.000346
0.000339
0.000287
0.000319
0.000312
0.000322
0.000343
0.000343
0.000322
0.000333
0.000329
0.000322
0.000326
0.000294
0.000333
0.000339
0.000329
0.000346
0.000336
0.000336
0.000305
0.000315
0.000343
0.000350
0.000378
0.000381
0.000371
0.000378
0.000364
0.000343
0.000381
0.000360
0.000333
0.000329
0.000326
0.000329
0.000298
0.000266
0.000319
0.000322
0.000322
0.000319
0.000339
0.000284
0.000305
0.000301
0.000333
0.000367
0.000357
0.000378
0.000385
0.000385
0.000367
0.000378
0.000399
0.000392
0.000399
0.000388
0.000413
0.000388
0.000364
0.000357
0.000357
0.000329
0.000336
0.000326
0.000319
0.000353
0.000346
0.000305
0.000322
0.000329
0.000315
0.000339
0.000336
0.000350
0.000336
0.000357
0.000360
0.000371
0.000364
0.000326
0.000273
0.000273
0.000228
0.000245
0.000312
0.000312
0.000346
0.000339
0.000388
0.000378
0.000364
0.000326
0.000322
0.000298
0.000291
0.000312
0.000350
0.000374
0.000374
0.000374
0.000374
0.000402
0.000371
0.000329
0.000395
0.000402
0.000409
0.000395
0.000427
0.000413
0.000378
0.000381
0.000413
0.000360
0.000385
0.000364
0.000378
0.000353
0.000353
0.000371
0.000371
0.000371
0.000360
0.000399
0.000381
0.000350
0.000339
0.000339
0.000333
0.000339
0.000291
0.000301
0.000360
0.000336
0.000336
0.000371
0.000402
0.000374
0.000378
0.000360
0.000395
0.000333
0.000350
0.000350
0.000353
0.000364
0.000371
0.000339
0.000371
0.000357
0.000333
0.000315
0.000367
0.000378
0.000322
0.000367
0.000353
0.000305
0.000312
0.000312
0.000350
0.000333
0.000339
0.000357
0.000381
0.000357
0.000346
0.000339
0.000319
0.000336
0.000326
0.000312
0.000312
0.000301
0.000305
0.000312
0.000294
0.000319
0.000322
0.000319
0.000350
0.000357
0.000381
0.000378
0.000371
0.000381
0.000399
0.000374
0.000378
0.000381
0.000364
0.000385
0.000378
0.000371
0.000367
0.000402
0.000350
0.000322
0.000339
0.000315
0.000329
0.000343
0.000301
0.000333
0.000326
0.000367
0.000329
0.000312
0.000339
0.000364
0.000333
0.000360
0.000395
0.000385
0.000385
0.000374
0.000392
0.000374
0.000392
0.000374
0.000385
0.000392
0.000360
0.000364
0.000378
0.000364
0.000339
0.000322
0.000339
0.000343
0.000353
0.000357
0.000378
0.000364
0.000339
0.000319
0.000350
0.000371
0.000381
0.000381
0.000399
0.000416
0.000378
0.000388
0.000406
0.000399
0.000406
0.000364
0.000364
0.000395
0.000326
0.000315
0.000364
0.000339
0.000353
0.000367
0.000402
0.000388
0.000406
0.000402
0.000423
0.000416
0.000409
0.000409
0.000430
0.000420
0.000409
0.000402
0.000406
0.000413
0.000399
0.000374
0.000413
0.000378
0.000385
0.000353
0.000346
0.000364
0.000336
0.000350
0.000357
0.000357
0.000329
0.000329
0.000357
0.000343
0.000353
0.000360
0.000378
0.000402
0.000399
0.000385
0.000402
0.000406
0.000392
0.000409
0.000392
0.000388
0.000402
0.000357
0.000381
0.000367
0.000381
0.000339
0.000367
0.000381
0.000350
0.000343
0.000381
0.000392
0.000371
0.000392
0.000402
0.000455
0.000409
0.000395
0.000420
0.000374
0.000346
0.000339
0.000360
0.000357
0.000357
0.000333
0.000357
0.000364
0.000392
0.000346
0.000388
0.000409
0.000371
0.000381
0.000406
0.000360
0.000378
0.000420
0.000406
0.000430
0.000388
0.000399
0.000392
0.000339
0.000298
0.000294
0.000312
0.000326
0.000326
0.000315
0.000357
0.000360
0.000371
0.000364
0.000378
0.000381
0.000343
0.000333
0.000329
0.000336
0.000336
0.000360
0.000409
0.000409
0.000381
0.000374
0.000416
0.000416
0.000413
0.000413
0.000437
0.000392
0.000388
0.000392
0.000381
0.000392
0.000353
0.000367
0.000357
0.000343
0.000364
0.000360
0.000371
0.000364
0.000357
0.000339
0.000364
0.000395
0.000381
0.000406
0.000413
0.000406
0.000385
0.000360
0.000385
0.000381
0.000367
0.000392
0.000399
0.000371
0.000392
0.000420
0.000385
0.000395
0.000339
0.000374
0.000395
0.000385
0.000385
0.000392
0.000413
0.000444
0.000441
0.000399
0.000441
0.000448
0.000402
0.000385
0.000371
0.000357
0.000357
0.000374
0.000353
0.000374
0.000357
0.000360
0.000371
0.000413
0.000392
0.000385
0.000423
0.000385
0.000388
0.000371
0.000381
0.000381
0.000371
0.000381
0.000385
0.000388
0.000374
0.000367
0.000388
0.000388
0.000350
0.000333
0.000360
0.000333
0.000333
0.000343
0.000385
0.000388
0.000420
0.000402
0.000406
0.000437
0.000409
0.000388
0.000423
0.000402
0.000374
0.000399
0.000392
0.000399
0.000395
0.000381
0.000385
0.000395
0.000353
0.000350
0.000360
0.000343
0.000343
0.000353
0.000346
0.000371
0.000343
0.000357
0.000392
0.000371
0.000385
0.000402
0.000427
0.000399
0.000423
0.000416
0.000395
0.000367
0.000399
0.000371
0.000357
0.000371
0.000385
0.000378
0.000374
0.000402
0.000374
0.000353
0.000346
0.000395
0.000402
0.000402
0.000423
0.000420
0.000430
0.000420
0.000416
0.000409
0.000374
0.000346
0.000353
0.000353
0.000364
0.000319
0.000326
0.000353
0.000336
0.000319
0.000360
0.000360
0.000333
0.000374
0.000385
0.000374
0.000381
0.000374
0.000416
0.000416
0.000399
0.000402
0.000427
0.000388
0.000409
0.000360
0.000353
0.000367
0.000357
0.000312
0.000353
0.000374
0.000350
0.000346
0.000350
0.000371
0.000381
0.000360
0.000378
0.000416
0.000367
0.000395
0.000423
0.000353
0.000385
0.000367
0.000395
0.000441
0.000430
0.000430
0.000448
0.000455
0.000430
0.000430
0.000434
0.000381
0.000395
0.000371
0.000378
0.000378
0.000378
0.000360
0.000409
0.000388
0.000360
0.000388
0.000381
0.000409
0.000392
0.000378
0.000427
0.000381
0.000385
0.000427
0.000392
0.000367
0.000388
0.000353
0.000346
0.000360
0.000329
0.000339
0.000371
0.000367
0.000364
0.000378
0.000416
0.000395
0.000402
0.000395
0.000420
0.000402
0.000399
0.000434
0.000402
0.000409
0.000427
0.000409
0.000402
0.000427
0.000399
0.000388
0.000420
0.000406
0.000395
0.000378
0.000364
0.000395
0.000388
0.000374
0.000423
0.000409
0.000406
0.000402
0.000423
0.000448
0.000444
0.000420
0.000423
0.000430
0.000392
0.000399
0.000434
0.000388
0.000395
0.000367
0.000364
0.000367
0.000374
0.000371
0.000367
0.000371
0.000378
0.000353
0.000395
0.000406
0.000427
0.000413
0.000465
0.000451
0.000413
0.000399
0.000395
0.000378
0.000374
0.000367
0.000353
0.000388
0.000378
0.000360
0.000385
0.000399
0.000357
0.000371
0.000381
0.000378
0.000353
0.000353
0.000381
0.000374
0.000353
0.000381
0.000402
0.000441
0.000406
0.000395
0.000395
0.000402
0.000381
0.000339
0.000364
0.000364
0.000343
0.000350
0.000364
0.000367
0.000360
0.000357
0.000371
0.000385
0.000399
0.000409
0.000402
0.000399
0.000430
0.000441
0.000427
0.000409
0.000402
0.000395
0.000392
0.000399
0.000378
0.000381
0.000378
0.000353
0.000346
0.000385
0.000350
0.000346
0.000343
0.000385
0.000406
0.000364
0.000399
0.000406
0.000388
0.000416
0.000388
0.000402
0.000388
0.000399
0.000423
0.000413
0.000416
0.000399
0.000395
0.000395
0.000353
0.000350
0.000360
0.000357
0.000392
0.000371
0.000392
0.000378
0.000378
0.000385
0.000371
0.000378
0.000385
0.000420
0.000416
0.000409
0.000402
0.000406
0.000388
0.000385
0.000371
0.000364
0.000333
0.000319
0.000350
0.000360
0.000360
0.000353
0.000346
0.000392
0.000353
0.000367
0.000385
0.000381
0.000420
0.000399
0.000416
0.000430
0.000385
0.000367
0.000388
0.000388
0.000388
0.000388
0.000423
0.000427
0.000416
0.000409
0.000406
0.000381
0.000385
0.000371
0.000388
0.000378
0.000339
0.000346
0.000371
0.000339
0.000326
0.000364
0.000392
0.000434
0.000409
0.000416
0.000434
0.000413
0.000381
0.000420
0.000420
0.000385
0.000371
0.000353
0.000374
0.000378
0.000346
0.000350
0.000371
0.000371
0.000326
0.000367
0.000420
0.000406
0.000395
0.000406
0.000420
0.000413
0.000402
0.000427
0.000427
0.000385
0.000374
0.000378
0.000381
0.000374
0.000350
0.000329
0.000343
0.000350
0.000346
0.000343
0.000374
0.000399
0.000367
0.000392
0.000423
0.000381
0.000357
0.000381
0.000399
0.000420
0.000385
0.000395
0.000402
0.000385
0.000371
0.000381
0.000360
0.000378
0.000346
0.000353
0.000371
0.000378
0.000357
0.000343
0.000385
0.000367
0.000388
0.000385
0.000402
0.000385
0.000367
0.000357
0.000385
0.000406
0.000378
0.000388
0.000427
0.000420
0.000406
0.000395
0.000430
0.000423
0.000378
0.000360
0.000388
0.000385
0.000374
0.000364
0.000402
0.000395
0.000392
0.000388
0.000423
0.000430
0.000423
0.000385
0.000430
0.000392
0.000392
0.000406
0.000420
0.000416
0.000427
0.000413
0.000416
0.000409
0.000371
0.000381
0.000402
0.000406
0.000392
0.000409
0.000427
0.000402
0.000350
0.000315
0.000350
0.000374
0.000360
0.000350
0.000360
0.000374
0.000378
0.000367
0.000378
0.000385
0.000353
0.000357
0.000385
0.000346
0.000346
0.000353
0.000392
0.000385
0.000385
0.000385
0.000406
0.000409
0.000392
0.000388
0.000427
0.000399
0.000392
0.000385
0.000406
0.000399
0.000367
0.000350
0.000385
0.000353
0.000350
0.000353
0.000371
0.000381
0.000378
0.000374
0.000423
0.000406
0.000388
0.000402
0.000395
0.000378
0.000357
0.000367
0.000381
0.000392
0.000371
0.000357
0.000423
0.000413
0.000416
0.000413
0.000420
0.000385
0.000381
0.000308
0.000322
0.000287
0.000294
0.000259
0.000284
0.000298
0.000326
0.000346
0.000374
0.000402
0.000364
0.000374
0.000402
0.000378
0.000399
0.000427
0.000392
0.000388
0.000409
0.000378
0.000392
0.000374
0.000395
0.000357
0.000353
0.000378
0.000399
0.000371
0.000395
0.000388
0.000360
0.000385
0.000392
0.000409
0.000392
0.000423
0.000441
0.000427
0.000427
0.000420
0.000427
0.000448
0.000423
0.000392
0.000430
0.000399
0.000416
0.000378
0.000367
0.000343
0.000326
0.000319
0.000364
0.000385
0.000367
0.000388
0.000423
0.000399
0.000388
0.000367
0.000385
0.000402
0.000399
0.000402
0.000448
0.000406
0.000395
0.000399
0.000402
0.000350
0.000315
0.000301
0.000305
0.000308
0.000301
0.000336
0.000364
0.000378
0.000381
0.000357
0.000406
0.000420
0.000399
0.000430
0.000406
0.000392
0.000406
0.000357
0.000381
0.000402
0.000346
0.000364
0.000381
0.000353
0.000374
0.000371
0.000378
0.000388
0.000416
0.000378
0.000409
0.000406
0.000367
0.000374
0.000374
0.000364
0.000374
0.000364
0.000385
0.000427
0.000399
0.000374
0.000423
0.000392
0.000427
0.000381
0.000364
0.000371
0.000319
0.000322
0.000350
0.000357
0.000339
0.000346
0.000385
0.000402
0.000409
0.000378
0.000406
0.000413
0.000392
0.000392
0.000413
0.000409
0.000399
0.000395
0.000406
0.000388
0.000381
0.000378
0.000399
0.000371
0.000367
0.000343
0.000364
0.000343
0.000346
0.000346
0.000371
0.000385
0.000374
0.000371
0.000423
0.000406
0.000420
0.000420
0.000441
0.000455
0.000427
0.000399
0.000416
0.000427
0.000395
0.000430
0.000406
0.000388
0.000402
0.000395
0.000378
0.000406
0.000385
0.000388
0.000430
0.000399
0.000406
0.000416
0.000427
0.000420
0.000434
0.000420
0.000444
0.000427
0.000416
0.000406
0.000448
0.000423
0.000378
0.000339
0.000350
0.000350
0.000353
0.000353
0.000399
0.000378
0.000385
0.000392
0.000430
0.000406
0.000399
0.000413
0.000409
0.000378
0.000402
0.000399
0.000413
0.000395
0.000395
0.000420
0.000409
0.000392
0.000409
0.000395
0.000399
0.000385
0.000367
0.000388
0.000385
0.000353
0.000367
0.000395
0.000395
0.000416
0.000364
0.000392
0.000388
0.000381
0.000364
0.000336
0.000374
0.000346
0.000360
0.000378
0.000371
0.000406
0.000374
0.000374
0.000388
0.000388
0.000381
0.000360
0.000371
0.000392
0.000364
0.000392
0.000416
0.000392
0.000402
0.000392
0.000423
0.000395
0.000388
0.000385
0.000392
0.000374
0.000371
0.000385
0.000402
0.000392
0.000402
0.000388
0.000402
0.000360
0.000353
0.000371
0.000357
0.000374
0.000378
0.000371
0.000378
0.000420
0.000392
0.000399
0.000441
0.000402
0.000395
0.000402
0.000402
0.000357
0.000374
0.000364
0.000374
0.000371
0.000360
0.000374
0.000402
0.000360
0.000399
0.000374
0.000388
0.000395
0.000378
0.000388
0.000437
0.000409
0.000395
0.000399
0.000402
0.000374
0.000388
0.000392
0.000399
0.000371
0.000374
0.000353
0.000381
0.000378
0.000371
0.000392
0.000385
0.000413
0.000402
0.000399
0.000392
0.000399
0.000350
0.000364
0.000350
0.000381
0.000357
0.000360
0.000364
0.000343
0.000333
0.000308
0.000353
0.000350
0.000353
0.000392
0.000402
0.000423
0.000399
0.000409
0.000434
0.000413
0.000406
0.000371
0.000395
0.000357
0.000388
0.000402
0.000406
0.000399
0.000406
0.000388
0.000378
0.000367
0.000343
0.000381
0.000388
0.000381
0.000371
0.000378
0.000413
0.000399
0.000392
0.000402
0.000409
0.000388
0.000367
0.000374
0.000360
0.000367
0.000374
0.000371
0.000416
0.000395
0.000381
0.000434
0.000409
0.000399
0.000402
0.000388
0.000381
0.000371
0.000357
0.000353
0.000357
0.000360
0.000360
0.000409
0.000381
t0(sec) = 0.000000E+0
dt(sec) = 4.000000E-10
F2:INSP "
DESCRIPTOR_NAME    : WAVEDESC           
TEMPLATE_NAME      : LECROY_2_3         
COMM_TYPE          : word               
COMM_ORDER         : HIFIRST            
WAVE_DESCRIPTOR    : 346                
USER_TEXT          : 0                  
RES_DESC1          : 0                  
TRIGTIME_ARRAY     : 0                  
RIS_TIME_ARRAY     : 0                  
RES_ARRAY1         : 0                  
WAVE_ARRAY_1       : 10002              
WAVE_ARRAY_2       : 0                  
RES_ARRAY2         : 0                  
RES_ARRAY3         : 0                  
INSTRUMENT_NAME    : LECROYHDO6104      
INSTRUMENT_NUMBER  : 6308               
TRACE_LABEL        :                    
RESERVED1          : 5001               
RESERVED2          : 0                  
WAVE_ARRAY_COUNT   : 5001               
PNTS_PER_SCREEN    : 5000               
FIRST_VALID_PNT    : 0                  
LAST_VALID_PNT     : 5000               
FIRST_POINT        : 0                  
SPARSING_FACTOR    : 1                  
SEGMENT_INDEX      : 0                  
SUBARRAY_COUNT     : 1                  
SWEEPS_PER_ACQ     : 200                
POINTS_PER_PAIR    : 0                  
PAIR_OFFSET        : 0                  
VERTICAL_GAIN      : 2.6238e-006        
VERTICAL_OFFSET    : 4.2500e-002        
MAX_VALUE          : 3.2512e+004        
MIN_VALUE          : -2.5373e+004       
NOMINAL_BITS       : 16                 
NOM_SUBARRAY_COUNT : 1                  
HORIZ_INTERVAL     : 4.0000e-010        
HORIZ_OFFSET       : -2.00000000e-007   
PIXEL_OFFSET       : -2.00000000e-007   
VERTUNIT           : Unit Name = V
HORUNIT            : Unit Name = S
HORIZ_UNCERTAINTY  : 1.0000e-012        
TRIGGER_TIME       : Date = APR 17, 2024, Time = 19:35:41.450611058
ACQ_DURATION       : 9.9988e+000        
RECORD_TYPE        : single_sweep       
PROCESSING_DONE    : no_processing      
RESERVED5          : 0                  
RIS_SWEEPS         : 1                  
TIMEBASE           : 200_ns/div         
VERT_COUPLING      : DC_50_Ohms         
PROBE_ATT          : 1.0000e+000        
FIXED_VERT_GAIN    : 20_mV/div          
BANDWIDTH_LIMIT    : off                
VERTICAL_VERNIER   : 1.0500e+000        
ACQ_VERT_OFFSET    : 0.0000e+000        
WAVE_SOURCE        : UNKNOWN            
"
0.001362
0.001356
0.001362
0.001356
0.001362
0.001364
0.001372
0.001372
0.001351
0.001343
0.001370
0.001377
0.001362
0.001354
0.001372
0.001377
0.001370
0.001351
0.001370
0.001370
0.001343
0.001372
0.001354
0.001372
0.001383
0.001328
0.001354
0.001391
0.001362
0.001351
0.001367
0.001362
0.001377
0.001364
0.001351
0.001349
0.001354
0.001333
0.001364
0.001362
0.001341
0.001364
0.001351
0.001372
0.001393
0.001364
0.001385
0.001383
0.001377
0.001349
0.001370
0.001385
0.001349
0.001367
0.001349
0.001393
0.001372
0.001354
0.001375
0.001375
0.001364
0.001383
0.001377
0.001370
0.001362
0.001375
0.001362
0.001377
0.001375
0.001367
0.001354
0.001370
0.001380
0.001364
0.001370
0.001383
0.001388
0.001359
0.001391
0.001364
0.001370
0.001367
0.001391
0.001383
0.001383
0.001388
0.001367
0.001370
0.001393
0.001370
0.001370
0.001393
0.001393
0.001354
0.001367
0.001367
0.001393
0.001359
0.001375
0.001380
0.001362
0.001359
0.001346
0.001372
0.001380
0.001359
0.001354
0.001398
0.001341
0.001362
0.001367
0.001349
0.001398
0.001346
0.001372
0.001391
0.001375
0.001370
0.001367
0.001367
0.001372
0.001388
0.001356
0.001412
0.001377
0.001367
0.001393
0.001375
0.001375
0.001341
0.001359
0.001375
0.001385
0.001351
0.001391
0.001380
0.001391
0.001349
0.001367
0.001388
0.001385
0.001377
0.001362
0.001398
0.001359
0.001354
0.001364
0.001404
0.001404
0.001377
0.001367
0.001375
0.001380
0.001367
0.001362
0.001391
0.001362
0.001364
0.001370
0.001385
0.001380
0.001333
0.001338
0.001351
0.001341
0.001349
0.001377
0.001375
0.001380
0.001362
0.001341
0.001370
0.001396
0.001377
0.001367
0.001346
0.001380
0.001359
0.001377
0.001372
0.001372
0.001364
0.001370
0.001354
0.001388
0.001375
0.001354
0.001362
0.001377
0.001385
0.001351
0.001354
0.001380
0.001349
0.001375
0.001370
0.001364
0.001362
0.001377
0.001356
0.001370
0.001383
0.001380
0.001370
0.001367
0.001362
0.001343
0.001388
0.001388
0.001359
0.001333
0.001367
0.001375
0.001341
0.001354
0.001388
0.001383
0.001385
0.001362
0.001385
0.001377
0.001359
0.001375
0.001393
0.001375
0.001356
0.001375
0.001377
0.001351
0.001372
0.001375
0.001388
0.001370
0.001362
0.001349
0.001398
0.001367
0.001354
0.001370
0.001356
0.001377
0.001385
0.001391
0.001383
0.001377
0.001388
0.001367
0.001406
0.001388
0.001354
0.001346
0.001367
0.001385
0.001325
0.001354
0.001364
0.001370
0.001364
0.001356
0.001372
0.001393
0.001367
0.001367
0.001396
0.001396
0.001385
0.001377
0.001383
0.001380
0.001383
0.001375
0.001391
0.001398
0.001356
0.001338
0.001398
0.001370
0.001341
0.001393
0.001383
0.001372
0.001364
0.001375
0.001380
0.001375
0.001364
0.001370
0.001372
0.001377
0.001354
0.001354
0.001375
0.001380
0.001349
0.001367
0.001370
0.001362
0.001362
0.001375
0.001385
0.001380
0.001356
0.001367
0.001341
0.001370
0.001370
0.001370
0.001377
0.001377
0.001380
0.001346
0.001362
0.001370
0.001349
0.001341
0.001372
0.001354
0.001359
0.001364
0.001372
0.001377
0.001380
0.001383
0.001388
0.001367
0.001356
0.001349
0.001372
0.001375
0.001364
0.001362
0.001388
0.001388
0.001349
0.001349
0.001362
0.001367
0.001354
0.001364
0.001383
0.001398
0.001349
0.001385
0.001398
0.001377
0.001346
0.001356
0.001354
0.001364
0.001333
0.001364
0.001349
0.001362
0.001351
0.001359
0.001372
0.001377
0.001372
0.001356
0.001380
0.001356
0.001367
0.001388
0.001367
0.001372
0.001375
0.001364
0.001375
0.001367
0.001356
0.001349
0.001377
0.001380
0.001359
0.001356
0.001367
0.001356
0.001328
0.001335
0.001380
0.001370
0.001346
0.001370
0.001356
0.001380
0.001370
0.001364
0.001383
0.001364
0.001385
0.001385
0.001383
0.001383
0.001380
0.001341
0.001362
0.001375
0.001349
0.001385
0.001370
0.001375
0.001377
0.001388
0.001383
0.001367
0.001388
0.001393
0.001356
0.001356
0.001333
0.001351
0.001393
0.001385
0.001375
0.001372
0.001385
0.001380
0.001356
0.001362
0.001370
0.001351
0.001346
0.001396
0.001372
0.001343
0.001346
0.001343
0.001335
0.001359
0.001359
0.001385
0.001380
0.001372
0.001351
0.001341
0.001372
0.001385
0.001380
0.001388
0.001375
0.001343
0.001314
0.001364
0.001372
0.001380
0.001375
0.001419
0.001404
0.001391
0.001396
0.001370
0.001356
0.001362
0.001349
0.001341
0.001351
0.001377
0.001351
0.001377
0.001388
0.001362
0.001343
0.001359
0.001333
0.001359
0.001372
0.001401
0.001409
0.001419
0.001412
0.001380
0.001383
0.001377
0.001354
0.001343
0.001343
0.001377
0.001346
0.001335
0.001404
0.001364
0.001404
0.001422
0.001409
0.001417
0.001391
0.001385
0.001393
0.001370
0.001356
0.001349
0.001388
0.001372
0.001349
0.001351
0.001367
0.001380
0.001338
0.001349
0.001359
0.001341
0.001338
0.001354
0.001370
0.001343
0.001330
0.001362
0.001362
0.001401
0.001412
0.001430
0.001406
0.001412
0.001359
0.001320
0.001375
0.001346
0.001349
0.001383
0.001391
0.001406
0.001385
0.001422
0.001419
0.001409
0.001388
0.001354
0.001359
0.001330
0.001312
0.001341
0.001383
0.001393
0.001401
0.001419
0.001438
0.001467
0.001422
0.001412
0.001409
0.001362
0.001314
0.001278
0.001296
0.001272
0.001325
0.001341
0.001375
0.001425
0.001393
0.001425
0.001438
0.001398
0.001359
0.001343
0.001270
0.001136
0.000861
0.000496
-0.000165
-0.001349
-0.003427
-0.006979
-0.012584
-0.018983
-0.023995
-0.028678
-0.032868
-0.035988
-0.038271
-0.040139
-0.041808
-0.043151
-0.044224
-0.045164
-0.046037
-0.046187
-0.045659
-0.045208
-0.044870
-0.044502
-0.044342
-0.044334
-0.044321
-0.044366
-0.044418
-0.044350
-0.043841
-0.043387
-0.043091
-0.042786
-0.042487
-0.042335
-0.042046
-0.041558
-0.041028
-0.040661
-0.040407
-0.040176
-0.039997
-0.039824
-0.039693
-0.039530
-0.039412
-0.039268
-0.039158
-0.038916
-0.038586
-0.038213
-0.037730
-0.037017
-0.036578
-0.036502
-0.036358
-0.036080
-0.035804
-0.035616
-0.035469
-0.035461
-0.035592
-0.035626
-0.035476
-0.035285
-0.034931
-0.034553
-0.034065
-0.033527
-0.033191
-0.033078
-0.033107
-0.033202
-0.033296
-0.033393
-0.033278
-0.033076
-0.033047
-0.032908
-0.032656
-0.032687
-0.032567
-0.032060
-0.031769
-0.031643
-0.031362
-0.030929
-0.030948
-0.031147
-0.030759
-0.030321
-0.030336
-0.030667
-0.030733
-0.030552
-0.030562
-0.030599
-0.030339
-0.029987
-0.029730
-0.029318
-0.029022
-0.029122
-0.029334
-0.029145
-0.028862
-0.028828
-0.028773
-0.028673
-0.028673
-0.028899
-0.029161
-0.028996
-0.028778
-0.028676
-0.028392
-0.027799
-0.027495
-0.027513
-0.027198
-0.026873
-0.027185
-0.027285
-0.027083
-0.026587
-0.026188
-0.025821
-0.025472
-0.025724
-0.026469
-0.026986
-0.026905
-0.026566
-0.026340
-0.026146
-0.025826
-0.025417
-0.024976
-0.024551
-0.024491
-0.024826
-0.024785
-0.024254
-0.023724
-0.023656
-0.023528
-0.023457
-0.023892
-0.023976
-0.023528
-0.023113
-0.022853
-0.022654
-0.022573
-0.022725
-0.022864
-0.022465
-0.021935
-0.022360
-0.023095
-0.023572
-0.023567
-0.023006
-0.022607
-0.022121
-0.021673
-0.021536
-0.021318
-0.021072
-0.020788
-0.020684
-0.020516
-0.020387
-0.020067
-0.019847
-0.019757
-0.019697
-0.019823
-0.019862
-0.019668
-0.019311
-0.018933
-0.018626
-0.018563
-0.018485
-0.018333
-0.018356
-0.018503
-0.018233
-0.018028
-0.017868
-0.017724
-0.017553
-0.017503
-0.017375
-0.017349
-0.017593
-0.017585
-0.017601
-0.017824
-0.017905
-0.017656
-0.017128
-0.016451
-0.015979
-0.015990
-0.016302
-0.016577
-0.016472
-0.016236
-0.016302
-0.016215
-0.015780
-0.015404
-0.015397
-0.015512
-0.015475
-0.015528
-0.015599
-0.015244
-0.014764
-0.014730
-0.014793
-0.014764
-0.014895
-0.014851
-0.014720
-0.014473
-0.014053
-0.013631
-0.013381
-0.013413
-0.013652
-0.014032
-0.014106
-0.013875
-0.013665
-0.013447
-0.013379
-0.013458
-0.013423
-0.013279
-0.013190
-0.013334
-0.013523
-0.013379
-0.013093
-0.013156
-0.013030
-0.012379
-0.011894
-0.011868
-0.011749
-0.011689
-0.011983
-0.012264
-0.012251
-0.012067
-0.012007
-0.011923
-0.011547
-0.011269
-0.011309
-0.011374
-0.011421
-0.011353
-0.011115
-0.010815
-0.010550
-0.010529
-0.010726
-0.010905
-0.010561
-0.010257
-0.010403
-0.010640
-0.010201
-0.009787
-0.010144
-0.010616
-0.010451
-0.010115
-0.010152
-0.009923
-0.009462
-0.009574
-0.009858
-0.009706
-0.009601
-0.009947
-0.010091
-0.009855
-0.009517
-0.009241
-0.009063
-0.008921
-0.008895
-0.008947
-0.009183
-0.009464
-0.009448
-0.009152
-0.008853
-0.008690
-0.008548
-0.008449
-0.008572
-0.008821
-0.009034
-0.009202
-0.009207
-0.009165
-0.009152
-0.009008
-0.008827
-0.008664
-0.008449
-0.008260
-0.008150
-0.008011
-0.007856
-0.007625
-0.007336
-0.007095
-0.006880
-0.006948
-0.007229
-0.007344
-0.007284
-0.007386
-0.007533
-0.007559
-0.007672
-0.007638
-0.007189
-0.006712
-0.006743
-0.007260
-0.007481
-0.007376
-0.007307
-0.007192
-0.007105
-0.007118
-0.006885
-0.006326
-0.006051
-0.006295
-0.006489
-0.006609
-0.006769
-0.006864
-0.006717
-0.006641
-0.006665
-0.006384
-0.006177
-0.006455
-0.006733
-0.006704
-0.006452
-0.006386
-0.006502
-0.006665
-0.006497
-0.006166
-0.006087
-0.006218
-0.006121
-0.005940
-0.005951
-0.005930
-0.005765
-0.005599
-0.005725
-0.005974
-0.005977
-0.005930
-0.005932
-0.005909
-0.005717
-0.005612
-0.005560
-0.005576
-0.005500
-0.005484
-0.005578
-0.005452
-0.005193
-0.005119
-0.005027
-0.004985
-0.005075
-0.005200
-0.005135
-0.005169
-0.005263
-0.005269
-0.005219
-0.005277
-0.005397
-0.005463
-0.005534
-0.005712
-0.005762
-0.005667
-0.005413
-0.005093
-0.004975
-0.005012
-0.004817
-0.004665
-0.004681
-0.004917
-0.005030
-0.005001
-0.004794
-0.004484
-0.004201
-0.004091
-0.004130
-0.004085
-0.004083
-0.004067
-0.004022
-0.004030
-0.003991
-0.004056
-0.004256
-0.004306
-0.004106
-0.003865
-0.003904
-0.004041
-0.003980
-0.003952
-0.004214
-0.004434
-0.004521
-0.004398
-0.004253
-0.004151
-0.004038
-0.003944
-0.004030
-0.004025
-0.003836
-0.003833
-0.004101
-0.004161
-0.003836
-0.003576
-0.003616
-0.003505
-0.003206
-0.003036
-0.003012
-0.002931
-0.003012
-0.003356
-0.003482
-0.003393
-0.003280
-0.003209
-0.003264
-0.003411
-0.003529
-0.003642
-0.003684
-0.003621
-0.003631
-0.003592
-0.003351
-0.003046
-0.002739
-0.002755
-0.003015
-0.003235
-0.003243
-0.003280
-0.003246
-0.003146
-0.003115
-0.003175
-0.003104
-0.003002
-0.002994
-0.003122
-0.003109
-0.002910
-0.002810
-0.002933
-0.003078
-0.003222
-0.003272
-0.003164
-0.002954
-0.002983
-0.003023
-0.002989
-0.002920
-0.002983
-0.003159
-0.003120
-0.002957
-0.002952
-0.002844
-0.002750
-0.002936
-0.003136
-0.003080
-0.003088
-0.003065
-0.002991
-0.002876
-0.002926
-0.003104
-0.003078
-0.002994
-0.003122
-0.003151
-0.002915
-0.002668
-0.002752
-0.002863
-0.002826
-0.002666
-0.002498
-0.002537
-0.002608
-0.002621
-0.002687
-0.002729
-0.002619
-0.002448
-0.002553
-0.002805
-0.002973
-0.002918
-0.002700
-0.002424
-0.002257
-0.002236
-0.002280
-0.002186
-0.002123
-0.002120
-0.002107
-0.002262
-0.002301
-0.002299
-0.002278
-0.002362
-0.002503
-0.002529
-0.002440
-0.002314
-0.002186
-0.002146
-0.002055
-0.001905
-0.001776
-0.001884
-0.002036
-0.002136
-0.002246
-0.002154
-0.002149
-0.002233
-0.002217
-0.002023
-0.002044
-0.002385
-0.002829
-0.002939
-0.002731
-0.002501
-0.002264
-0.002044
-0.001939
-0.001876
-0.001852
-0.001873
-0.002005
-0.002049
-0.002049
-0.002060
-0.002039
-0.002099
-0.002228
-0.002325
-0.002288
-0.002225
-0.001989
-0.001795
-0.001934
-0.002125
-0.002094
-0.001944
-0.001965
-0.001918
-0.001661
-0.001422
-0.001451
-0.001496
-0.001506
-0.001543
-0.001535
-0.001475
-0.001370
-0.001228
-0.001099
-0.001052
-0.001131
-0.001288
-0.001451
-0.001490
-0.001525
-0.001504
-0.001441
-0.001422
-0.001593
-0.001721
-0.001574
-0.001362
-0.001338
-0.001367
-0.001312
-0.001233
-0.001147
-0.001212
-0.001443
-0.001616
-0.001519
-0.001435
-0.001448
-0.001535
-0.001540
-0.001367
-0.001228
-0.001218
-0.001207
-0.001312
-0.001414
-0.001364
-0.001354
-0.001488
-0.001572
-0.001448
-0.001336
-0.001362
-0.001433
-0.001501
-0.001485
-0.001414
-0.001357
-0.001322
-0.001304
-0.001380
-0.001399
-0.001309
-0.001252
-0.001173
-0.001073
-0.000974
-0.000934
-0.001042
-0.001099
-0.001102
-0.001071
-0.001068
-0.001136
-0.001262
-0.001443
-0.001354
-0.001252
-0.001288
-0.001362
-0.001325
-0.001430
-0.001485
-0.001362
-0.001343
-0.001548
-0.001593
-0.001443
-0.001341
-0.001343
-0.001204
-0.001018
-0.001084
-0.001262
-0.001207
-0.001126
-0.001128
-0.001047
-0.000995
-0.000887
-0.000753
-0.000774
-0.000824
-0.000777
-0.000764
-0.000942
-0.001034
-0.001036
-0.000908
-0.000808
-0.000903
-0.000989
-0.001000
-0.001060
-0.001120
-0.001063
-0.001081
-0.001013
-0.000908
-0.000884
-0.000829
-0.000813
-0.000813
-0.000811
-0.000840
-0.000897
-0.000926
-0.001029
-0.001202
-0.001265
-0.001183
-0.001136
-0.001155
-0.001094
-0.000918
-0.000845
-0.000929
-0.000976
-0.000916
-0.000900
-0.000905
-0.000811
-0.000714
-0.000724
-0.000719
-0.000722
-0.000798
-0.000824
-0.000798
-0.000798
-0.000758
-0.000659
-0.000653
-0.000643
-0.000525
-0.000451
-0.000509
-0.000562
-0.000485
-0.000493
-0.000622
-0.000698
-0.000598
-0.000548
-0.000551
-0.000501
-0.000391
-0.000409
-0.000415
-0.000423
-0.000480
-0.000546
-0.000457
-0.000336
-0.000307
-0.000417
-0.000590
-0.000685
-0.000669
-0.000627
-0.000653
-0.000598
-0.000433
-0.000407
-0.000386
-0.000451
-0.000509
-0.000509
-0.000530
-0.000556
-0.000646
-0.000748
-0.000824
-0.000984
-0.001168
-0.001152
-0.000976
-0.000882
-0.000884
-0.000861
-0.000795
-0.000743
-0.000722
-0.000695
-0.000622
-0.000614
-0.000514
-0.000378
-0.000365
-0.000546
-0.000583
-0.000506
-0.000514
-0.000569
-0.000593
-0.000522
-0.000472
-0.000609
-0.000816
-0.000887
-0.000879
-0.000800
-0.000659
-0.000512
-0.000499
-0.000517
-0.000562
-0.000588
-0.000577
-0.000617
-0.000685
-0.000753
-0.000735
-0.000748
-0.000698
-0.000580
-0.000556
-0.000653
-0.000667
-0.000535
-0.000496
-0.000530
-0.000554
-0.000475
-0.000383
-0.000331
-0.000333
-0.000394
-0.000483
-0.000698
-0.000890
-0.000968
-0.000871
-0.000685
-0.000609
-0.000559
-0.000564
-0.000575
-0.000491
-0.000506
-0.000551
-0.000546
-0.000480
-0.000357
-0.000325
-0.000399
-0.000388
-0.000467
-0.000493
-0.000391
-0.000231
-0.000268
-0.000349
-0.000310
-0.000328
-0.000383
-0.000344
-0.000268
-0.000268
-0.000433
-0.000438
-0.000220
-0.000037
0.000060
0.000058
-0.000037
-0.000262
-0.000417
-0.000310
-0.000226
-0.000244
-0.000210
-0.000181
-0.000289
-0.000378
-0.000438
-0.000520
-0.000538
-0.000533
-0.000430
-0.000344
-0.000352
-0.000388
-0.000472
-0.000559
-0.000640
-0.000677
-0.000559
-0.000388
-0.000310
-0.000333
-0.000402
-0.000462
-0.000449
-0.000354
-0.000320
-0.000388
-0.000548
-0.000517
-0.000404
-0.000291
-0.000299
-0.000454
-0.000585
-0.000556
-0.000438
-0.000336
-0.000394
-0.000315
-0.000247
-0.000207
-0.000163
-0.000110
-0.000050
-0.000089
-0.000060
-0.000118
-0.000144
-0.000081
0.000045
0.000168
0.000173
-0.000039
-0.000215
-0.000231
-0.000160
-0.000079
-0.000131
-0.000176
-0.000265
-0.000365
-0.000365
-0.000333
-0.000286
-0.000333
-0.000360
-0.000179
-0.000013
0.000060
-0.000037
-0.000247
-0.000457
-0.000509
-0.000331
-0.000165
-0.000121
-0.000076
-0.000034
-0.000066
-0.000013
0.000047
0.000076
0.000029
-0.000123
-0.000168
-0.000215
-0.000357
-0.000483
-0.000506
-0.000493
-0.000485
-0.000360
-0.000116
-0.000047
-0.000150
-0.000349
-0.000483
-0.000430
-0.000215
0.000034
0.000207
0.000205
0.000071
0.000018
-0.000008
-0.000121
-0.000265
-0.000333
-0.000249
-0.000063
0.000055
-0.000024
-0.000202
-0.000391
-0.000420
-0.000283
-0.000220
-0.000139
-0.000097
-0.000184
-0.000331
-0.000260
-0.000032
0.000008
-0.000068
-0.000074
-0.000097
-0.000134
-0.000055
-0.000058
-0.000126
-0.000236
-0.000226
-0.000121
-0.000066
-0.000121
-0.000121
-0.000213
-0.000262
-0.000244
-0.000168
-0.000026
0.000037
-0.000053
-0.000158
-0.000215
-0.000165
-0.000144
-0.000081
-0.000071
-0.000039
-0.000084
-0.000147
-0.000121
-0.000118
-0.000079
-0.000058
-0.000034
-0.000026
-0.000165
-0.000388
-0.000530
-0.000559
-0.000488
-0.000286
-0.000034
-0.000005
-0.000089
-0.000147
-0.000194
-0.000181
-0.000142
-0.000074
-0.000016
-0.000000
-0.000116
-0.000142
-0.000018
-0.000013
-0.000234
-0.000320
-0.000100
0.000055
-0.000005
-0.000039
-0.000034
-0.000055
-0.000008
0.000205
0.000286
0.000244
0.000202
0.000170
0.000136
0.000191
0.000265
0.000260
0.000178
0.000142
0.000147
0.000089
0.000021
0.000016
0.000034
0.000021
-0.000034
0.000005
-0.000066
-0.000121
0.000003
0.000123
0.000066
-0.000074
-0.000168
-0.000197
-0.000171
-0.000092
-0.000024
0.000018
0.000086
0.000239
0.000262
0.000191
0.000050
0.000005
0.000034
0.000097
0.000184
0.000275
0.000194
0.000018
-0.000076
-0.000026
0.000029
-0.000037
-0.000000
0.000066
-0.000003
-0.000092
-0.000029
0.000037
-0.000037
-0.000123
-0.000158
-0.000278
-0.000352
-0.000257
-0.000123
-0.000055
-0.000013
0.000076
0.000178
0.000212
0.000210
0.000134
-0.000042
-0.000168
-0.000244
-0.000197
-0.000118
-0.000053
-0.000129
-0.000223
-0.000268
-0.000158
-0.000021
0.000092
0.000123
0.000223
0.000312
0.000383
0.000357
0.000239
0.000060
-0.000034
-0.000034
0.000003
0.000031
0.000068
0.000047
0.000029
-0.000079
-0.000126
-0.000013
0.000084
0.000160
0.000215
0.000194
0.000121
0.000066
0.000045
-0.000018
0.000026
0.000149
0.000241
0.000215
0.000178
0.000165
0.000136
0.000045
-0.000018
0.000005
0.000079
0.000134
0.000210
0.000354
0.000320
0.000197
0.000092
-0.000005
-0.000131
-0.000152
0.000024
0.000113
0.000128
0.000050
-0.000000
0.000037
0.000052
0.000063
0.000115
0.000168
0.000212
0.000205
0.000144
0.000107
0.000076
-0.000163
-0.000336
-0.000325
-0.000186
-0.000147
-0.000108
-0.000016
0.000055
-0.000013
-0.000110
-0.000071
0.000107
0.000113
0.000170
0.000325
0.000336
0.000220
0.000247
0.000312
0.000268
0.000163
0.000081
0.000086
0.000079
0.000097
0.000128
0.000189
0.000197
0.000189
0.000207
0.000136
0.000113
0.000084
0.000097
0.000199
0.000241
0.000194
0.000194
0.000194
0.000163
0.000105
0.000128
0.000233
0.000317
0.000375
0.000443
0.000525
0.000401
0.000231
0.000066
0.000021
0.000184
0.000275
0.000236
0.000199
0.000121
0.000016
0.000016
0.000016
-0.000013
-0.000102
0.000005
0.000249
0.000296
0.000223
0.000252
0.000268
0.000299
0.000325
0.000346
0.000380
0.000417
0.000412
0.000414
0.000310
0.000178
0.000060
0.000079
0.000102
0.000086
0.000039
0.000037
0.000118
0.000168
0.000157
0.000055
-0.000074
0.000024
0.000210
0.000315
0.000307
0.000299
0.000210
0.000215
0.000289
0.000310
0.000163
0.000008
0.000042
0.000100
0.000155
0.000254
0.000283
0.000244
0.000228
0.000239
0.000144
0.000039
0.000031
0.000076
0.000152
0.000220
0.000239
0.000254
0.000168
0.000021
-0.000105
-0.000003
0.000149
0.000220
0.000273
0.000367
0.000417
0.000304
0.000260
0.000333
0.000349
0.000275
0.000291
0.000420
0.000509
0.000430
0.000336
0.000228
0.000128
0.000128
0.000218
0.000338
0.000401
0.000383
0.000331
0.000333
0.000346
0.000383
0.000296
0.000239
0.000197
0.000241
0.000344
0.000477
0.000428
0.000352
0.000370
0.000404
0.000378
0.000273
0.000239
0.000252
0.000331
0.000372
0.000315
0.000307
0.000294
0.000270
0.000270
0.000268
0.000252
0.000199
0.000147
0.000131
0.000131
0.000223
0.000212
0.000055
0.000003
0.000113
0.000220
0.000223
0.000226
0.000252
0.000223
0.000247
0.000396
0.000399
0.000273
0.000249
0.000296
0.000278
0.000286
0.000304
0.000244
0.000194
0.000281
0.000388
0.000435
0.000380
0.000409
0.000428
0.000433
0.000472
0.000475
0.000446
0.000378
0.000323
0.000189
0.000136
0.000147
0.000199
0.000249
0.000236
0.000323
0.000412
0.000417
0.000367
0.000328
0.000273
0.000231
0.000223
0.000205
0.000181
0.000233
0.000310
0.000331
0.000336
0.000320
0.000228
0.000226
0.000365
0.000386
0.000433
0.000443
0.000380
0.000210
0.000160
0.000207
0.000270
0.000346
0.000470
0.000603
0.000637
0.000559
0.000512
0.000375
0.000215
0.000123
0.000139
0.000194
0.000265
0.000207
0.000241
0.000331
0.000420
0.000509
0.000577
0.000588
0.000593
0.000543
0.000467
0.000414
0.000372
0.000399
0.000435
0.000475
0.000522
0.000551
0.000504
0.000441
0.000412
0.000438
0.000372
0.000380
0.000386
0.000404
0.000336
0.000215
0.000247
0.000294
0.000252
0.000228
0.000283
0.000320
0.000307
0.000372
0.000388
0.000344
0.000320
0.000365
0.000404
0.000399
0.000462
0.000462
0.000467
0.000470
0.000491
0.000522
0.000443
0.000409
0.000446
0.000375
0.000325
0.000354
0.000504
0.000575
0.000580
0.000614
0.000546
0.000380
0.000270
0.000212
0.000315
0.000459
0.000493
0.000514
0.000396
0.000257
0.000199
0.000212
0.000157
0.000149
0.000165
0.000107
0.000097
0.000239
0.000396
0.000467
0.000454
0.000435
0.000417
0.000391
0.000441
0.000464
0.000396
0.000317
0.000396
0.000488
0.000504
0.000462
0.000475
0.000485
0.000488
0.000464
0.000498
0.000522
0.000501
0.000519
0.000514
0.000420
0.000247
0.000157
0.000231
0.000420
0.000491
0.000433
0.000396
0.000420
0.000417
0.000435
0.000443
0.000430
0.000417
0.000362
0.000370
0.000315
0.000239
0.000215
0.000262
0.000294
0.000323
0.000414
0.000428
0.000325
0.000207
0.000228
0.000344
0.000433
0.000401
0.000414
0.000428
0.000430
0.000459
0.000462
0.000446
0.000425
0.000435
0.000527
0.000506
0.000470
0.000438
0.000443
0.000509
0.000603
0.000611
0.000485
0.000386
0.000407
0.000446
0.000430
0.000446
0.000488
0.000438
0.000354
0.000417
0.000386
0.000435
0.000462
0.000493
0.000504
0.000514
0.000470
0.000393
0.000352
0.000412
0.000412
0.000425
0.000475
0.000590
0.000603
0.000551
0.000509
0.000504
0.000496
0.000519
0.000601
0.000593
0.000519
0.000514
0.000569
0.000664
0.000609
0.000498
0.000386
0.000273
0.000286
0.000294
0.000328
0.000383
0.000422
0.000509
0.000554
0.000527
0.000543
0.000548
0.000535
0.000435
0.000417
0.000433
0.000404
0.000325
0.000315
0.000344
0.000365
0.000393
0.000383
0.000354
0.000312
0.000273
0.000299
0.000312
0.000315
0.000315
0.000294
0.000328
0.000315
0.000323
0.000323
0.000352
0.000391
0.000443
0.000519
0.000609
0.000735
0.000753
0.000588
0.000488
0.000456
0.000407
0.000346
0.000372
0.000451
0.000480
0.000475
0.000540
0.000588
0.000538
0.000509
0.000491
0.000328
0.000270
0.000320
0.000417
0.000456
0.000428
0.000475
0.000522
0.000548
0.000617
0.000624
0.000617
0.000588
0.000637
0.000572
0.000512
0.000433
0.000375
0.000380
0.000425
0.000388
0.000354
0.000378
0.000493
0.000543
0.000491
0.000501
0.000540
0.000580
0.000554
0.000546
0.000582
0.000472
0.000441
0.000498
0.000575
0.000617
0.000601
0.000601
0.000559
0.000514
0.000535
0.000556
0.000491
0.000533
0.000551
0.000438
0.000357
0.000333
0.000378
0.000441
0.000540
0.000622
0.000632
0.000619
0.000648
0.000606
0.000538
0.000504
0.000456
0.000493
0.000627
0.000630
0.000588
0.000530
0.000449
0.000391
0.000391
0.000441
0.000527
0.000501
0.000540
0.000559
0.000567
0.000551
0.000535
0.000506
0.000467
0.000538
0.000533
0.000514
0.000525
0.000530
0.000538
0.000546
0.000580
0.000580
0.000580
0.000637
0.000682
0.000617
0.000483
0.000414
0.000422
0.000514
0.000559
0.000575
0.000590
0.000527
0.000393
0.000388
0.000388
0.000362
0.000328
0.000370
0.000425
0.000417
0.000422
0.000438
0.000441
0.000464
0.000582
0.000666
0.000651
0.000700
0.000693
0.000706
0.000619
0.000496
0.000404
0.000414
0.000464
0.000407
0.000325
0.000317
0.000317
0.000307
0.000386
0.000441
0.000525
0.000546
0.000509
0.000525
0.000556
0.000509
0.000533
0.000630
0.000672
0.000603
0.000535
0.000496
0.000496
0.000467
0.000525
0.000632
0.000575
0.000519
0.000522
0.000556
0.000593
0.000577
0.000575
0.000609
0.000672
0.000779
0.000787
0.000763
0.000690
0.000596
0.000530
0.000519
0.000517
0.000430
0.000367
0.000357
0.000338
0.000310
0.000370
0.000396
0.000428
0.000451
0.000514
0.000617
0.000637
0.000651
0.000706
0.000771
0.000682
0.000561
0.000577
0.000588
0.000483
0.000470
0.000470
0.000446
0.000401
0.000454
0.000572
0.000556
0.000393
0.000338
0.000420
0.000506
0.000470
0.000407
0.000304
0.000160
0.000121
0.000239
0.000407
0.000464
0.000606
0.000769
0.000829
0.000829
0.000771
0.000700
0.000585
0.000493
0.000383
0.000325
0.000383
0.000438
0.000517
0.000538
0.000569
0.000585
0.000643
0.000674
0.000630
0.000509
0.000378
0.000383
0.000451
0.000522
0.000559
0.000611
0.000596
0.000664
0.000695
0.000687
0.000669
0.000588
0.000480
0.000467
0.000435
0.000493
0.000580
0.000674
0.000679
0.000742
0.000777
0.000693
0.000619
0.000572
0.000530
0.000567
0.000575
0.000598
0.000569
0.000619
0.000585
0.000438
0.000281
0.000317
0.000433
0.000485
0.000470
0.000504
0.000577
0.000585
0.000596
0.000601
0.000624
0.000522
0.000470
0.000601
0.000716
0.000745
0.000724
0.000700
0.000735
0.000826
0.000837
0.000769
0.000637
0.000548
0.000556
0.000601
0.000640
0.000601
0.000619
0.000559
0.000548
0.000606
0.000677
0.000627
0.000619
0.000596
0.000590
0.000572
0.000609
0.000567
0.000551
0.000572
0.000609
0.000601
0.000606
0.000677
0.000669
0.000606
0.000554
0.000690
0.000690
0.000611
0.000617
0.000703
0.000724
0.000674
0.000682
0.000698
0.000666
0.000614
0.000617
0.000643
0.000575
0.000580
0.000635
0.000603
0.000533
0.000475
0.000386
0.000299
0.000310
0.000370
0.000475
0.000527
0.000572
0.000637
0.000716
0.000719
0.000672
0.000648
0.000598
0.000548
0.000556
0.000561
0.000561
0.000569
0.000561
0.000630
0.000735
0.000779
0.000735
0.000706
0.000735
0.000748
0.000711
0.000648
0.000669
0.000632
0.000525
0.000517
0.000590
0.000656
0.000653
0.000664
0.000677
0.000700
0.000758
0.000758
0.000740
0.000700
0.000627
0.000611
0.000622
0.000700
0.000795
0.000795
0.000698
0.000598
0.000509
0.000456
0.000391
0.000407
0.000443
0.000530
0.000582
0.000606
0.000651
0.000666
0.000640
0.000645
0.000672
0.000706
0.000740
0.000653
0.000590
0.000590
0.000548
0.000504
0.000498
0.000493
0.000477
0.000393
0.000443
0.000561
0.000606
0.000548
0.000617
0.000748
0.000740
0.000737
0.000756
0.000832
0.000845
0.000858
0.000792
0.000819
0.000871
0.000868
0.000876
0.000834
0.000800
0.000727
0.000685
0.000653
0.000630
0.000622
0.000527
0.000543
0.000648
0.000685
0.000724
0.000679
0.000658
0.000630
0.000609
0.000656
0.000685
0.000714
0.000742
0.000679
0.000687
0.000674
0.000648
0.000643
0.000664
0.000732
0.000750
0.000763
0.000735
0.000687
0.000698
0.000700
0.000724
0.000758
0.000824
0.000845
0.000850
0.000784
0.000763
0.000714
0.000679
0.000635
0.000617
0.000651
0.000711
0.000766
0.000850
0.000837
0.000748
0.000693
0.000590
0.000559
0.000580
0.000572
0.000561
0.000580
0.000564
0.000485
0.000540
0.000582
0.000585
0.000548
0.000630
0.000769
0.000829
0.000847
0.000871
0.000850
0.000756
0.000661
0.000653
0.000677
0.000630
0.000614
0.000727
0.000813
0.000756
0.000651
0.000703
0.000719
0.000622
0.000556
0.000637
0.000690
0.000687
0.000742
0.000777
0.000721
0.000690
0.000735
0.000813
0.000819
0.000800
0.000761
0.000679
0.000624
0.000601
0.000596
0.000619
0.000648
0.000669
0.000732
0.000805
0.000855
0.000845
0.000813
0.000805
0.000842
0.000792
0.000782
0.000784
0.000763
0.000645
0.000546
0.000483
0.000425
0.000470
0.000577
0.000669
0.000719
0.000748
0.000735
0.000748
0.000761
0.000732
0.000706
0.000658
0.000645
0.000669
0.000614
0.000530
0.000582
0.000627
0.000693
0.000740
0.000742
0.000729
0.000679
0.000706
0.000603
0.000543
0.000527
0.000543
0.000585
0.000606
0.000664
0.000735
0.000787
0.000769
0.000716
0.000653
0.000703
0.000756
0.000727
0.000700
0.000679
0.000593
0.000556
0.000580
0.000596
0.000572
0.000485
0.000540
0.000603
0.000693
0.000779
0.000842
0.000842
0.000811
0.000816
0.000876
0.000861
0.000819
0.000742
0.000674
0.000651
0.000740
0.000824
0.000795
0.000766
0.000779
0.000808
0.000863
0.000884
0.000847
0.000758
0.000679
0.000727
0.000787
0.000737
0.000679
0.000724
0.000845
0.000921
0.000900
0.000871
0.000808
0.000748
0.000742
0.000763
0.000774
0.000756
0.000685
0.000719
0.000750
0.000724
0.000700
0.000777
0.000808
0.000753
0.000700
0.000698
0.000714
0.000690
0.000664
0.000530
0.000488
0.000491
0.000582
0.000619
0.000685
0.000829
0.000910
0.000973
0.001036
0.001065
0.001002
0.000992
0.000950
0.000902
0.000855
0.000798
0.000714
0.000635
0.000630
0.000687
0.000698
0.000619
0.000637
0.000669
0.000685
0.000693
0.000727
0.000687
0.000651
0.000609
0.000653
0.000721
0.000798
0.000800
0.000832
0.000882
0.000816
0.000834
0.000876
0.000902
0.000868
0.000766
0.000703
0.000669
0.000664
0.000580
0.000564
0.000598
0.000572
0.000561
0.000619
0.000687
0.000695
0.000661
0.000724
0.000892
0.000934
0.000921
0.000905
0.000821
0.000700
0.000679
0.000756
0.000787
0.000792
0.000729
0.000729
0.000735
0.000729
0.000661
0.000588
0.000519
0.000535
0.000651
0.000716
0.000740
0.000724
0.000685
0.000666
0.000693
0.000706
0.000627
0.000617
0.000695
0.000700
0.000716
0.000771
0.000850
0.000842
0.000787
0.000790
0.000808
0.000777
0.000771
0.000821
0.000803
0.000703
0.000645
0.000690
0.000763
0.000826
0.000821
0.000795
0.000756
0.000677
0.000640
0.000651
0.000614
0.000611
0.000669
0.000732
0.000840
0.000895
0.000939
0.000947
0.000929
0.000908
0.000837
0.000808
0.000863
0.000858
0.000850
0.000882
0.000882
0.000855
0.000698
0.000672
0.000750
0.000771
0.000711
0.000756
0.000863
0.000960
0.000900
0.000950
0.000897
0.000782
0.000719
0.000821
0.000910
0.000879
0.000845
0.000921
0.000905
0.000855
0.000821
0.000819
0.000774
0.000753
0.000763
0.000834
0.000892
0.000902
0.000845
0.000837
0.000897
0.000871
0.000866
0.000887
0.000908
0.000916
0.000908
0.000926
0.000874
0.000779
0.000742
0.000742
0.000774
0.000766
0.000798
0.000913
0.000968
0.000986
0.000971
0.000910
0.000805
0.000805
0.000876
0.000934
0.000900
0.000826
0.000740
0.000716
0.000750
0.000837
0.000887
0.000866
0.000842
0.000866
0.000874
0.000840
0.000800
0.000832
0.000858
0.000892
0.000887
0.000884
0.000871
0.000816
0.000758
0.000748
0.000724
0.000769
0.000826
0.000808
0.000729
0.000640
0.000588
0.000645
0.000624
0.000645
0.000729
0.000774
0.000758
0.000811
0.000929
0.000950
0.000908
0.000876
0.000847
0.000855
0.000858
0.000889
0.000921
0.000908
0.000842
0.000847
0.000850
0.000816
0.000824
0.000829
0.000887
0.000892
0.000853
0.000850
0.000792
0.000816
0.000800
0.000803
0.000847
0.000863
0.000840
0.000900
0.000916
0.000834
0.000782
0.000803
0.000887
0.000868
0.000858
0.000895
0.000958
0.000926
0.000871
0.000868
0.000808
0.000763
0.000708
0.000729
0.000758
0.000808
0.000816
0.000842
0.000803
0.000769
0.000792
0.000808
0.000874
0.000931
0.000958
0.000918
0.000845
0.000805
0.000761
0.000748
0.000729
0.000724
0.000753
0.000769
0.000742
0.000790
0.000787
0.000816
0.000861
0.000847
0.000842
0.000879
0.000939
0.000976
0.000926
0.000879
0.000871
0.000861
0.000813
0.000803
0.000832
0.000779
0.000805
0.000905
0.000918
0.000923
0.000939
0.000971
0.000971
0.000910
0.000931
0.000955
0.000926
0.000902
0.000947
0.000931
0.000858
0.000805
0.000769
0.000700
0.000635
0.000624
0.000695
0.000750
0.000774
0.000832
0.000845
0.000861
0.000798
0.000672
0.000669
0.000716
0.000774
0.000897
0.000923
0.000926
0.000926
0.000942
0.000884
0.000887
0.000879
0.000910
0.000834
0.000829
0.000800
0.000735
0.000640
0.000656
0.000719
0.000677
0.000698
0.000803
0.000892
0.000889
0.000840
0.000840
0.000847
0.000816
0.000803
0.000821
0.000824
0.000745
0.000735
0.000824
0.000942
0.000963
0.000971
0.001036
0.001055
0.000984
0.000931
0.000842
0.000711
0.000716
0.000840
0.000892
0.000879
0.000939
0.000971
0.000913
0.000813
0.000672
0.000606
0.000637
0.000721
0.000787
0.000745
0.000795
0.000876
0.000897
0.000826
0.000758
0.000740
0.000740
0.000682
0.000761
0.000884
0.000939
0.000989
0.000923
0.000868
0.000837
0.000813
0.000929
0.000944
0.000876
0.000847
0.000923
0.000952
0.000845
0.000756
0.000761
0.000737
0.000732
0.000750
0.000826
0.000853
0.000847
0.000808
0.000790
0.000879
0.000944
0.000900
0.000874
0.000887
0.000874
0.000800
0.000763
0.000795
0.000750
0.000695
0.000664
0.000745
0.000845
0.000887
0.000918
0.000874
0.000863
0.000884
0.000910
0.000853
0.000700
0.000624
0.000651
0.000737
0.000808
0.000840
0.000876
0.000863
0.000905
0.000895
0.000923
0.000942
0.001013
0.001002
0.000981
0.001018
0.000989
0.000923
0.000900
0.000921
0.000908
0.000871
0.000910
0.000947
0.000976
0.000971
0.000910
0.000850
0.000763
0.000787
0.000908
0.000926
0.000923
0.000871
0.000769
0.000711
0.000724
0.000805
0.000784
0.000774
0.000871
0.000931
0.000897
0.000805
0.000782
0.000771
0.000842
0.000863
0.000892
0.000855
0.000863
0.000889
0.000884
0.000923
0.000997
0.001052
0.000965
0.000905
0.000884
0.000832
0.000871
0.000892
0.000832
0.000787
0.000819
0.000832
0.000858
0.000840
0.000908
0.000884
0.000866
0.000895
0.000923
0.000942
0.000947
0.000910
0.000887
0.000921
0.000994
0.001086
0.001047
0.000971
0.000942
0.000897
0.000842
0.000769
0.000745
0.000769
0.000845
0.000963
0.000992
0.000973
0.000984
0.000976
0.000934
0.000826
0.000798
0.000850
0.000837
0.000858
0.000931
0.000934
0.000973
0.000997
0.001031
0.001013
0.000973
0.000947
0.000884
0.000805
0.000821
0.000897
0.000958
0.000923
0.000934
0.000937
0.000902
0.000897
0.000895
0.000916
0.000863
0.000808
0.000795
0.000779
0.000808
0.000829
0.000897
0.000897
0.000845
0.000879
0.000986
0.000939
0.000892
0.000913
0.000942
0.000905
0.000845
0.000858
0.000916
0.000897
0.000889
0.000902
0.000884
0.000808
0.000832
0.000858
0.000842
0.000826
0.000850
0.000950
0.000968
0.000905
0.000882
0.000782
0.000666
0.000677
0.000803
0.000887
0.000931
0.001018
0.001078
0.001055
0.001052
0.001034
0.000950
0.000879
0.000923
0.001013
0.001042
0.001010
0.000960
0.000960
0.000895
0.000832
0.000803
0.000819
0.000840
0.000866
0.000937
0.000965
0.000955
0.001007
0.001023
0.000981
0.000989
0.000900
0.000879
0.000795
0.000669
0.000632
0.000690
0.000727
0.000800
0.000858
0.000819
0.000771
0.000845
0.000913
0.000910
0.000937
0.000963
0.000871
0.000858
0.000913
0.000939
0.000923
0.000876
0.000889
0.000850
0.000842
0.000874
0.000931
0.000926
0.000944
0.001000
0.001010
0.001028
0.000984
0.000926
0.000958
0.000952
0.000958
0.000952
0.000984
0.000944
0.000908
0.000947
0.000997
0.000955
0.000874
0.000923
0.000900
0.000916
0.000910
0.000942
0.000939
0.000921
0.000973
0.000952
0.000882
0.000819
0.000821
0.000887
0.000992
0.001002
0.000973
0.001060
0.001089
0.000984
0.000858
0.000790
0.000808
0.000861
0.000908
0.000868
0.000706
0.000606
0.000656
0.000787
0.000774
0.000824
0.000913
0.000981
0.001005
0.001102
0.001123
0.001068
0.000942
0.000947
0.000939
0.000937
0.000937
0.000960
0.000913
0.000876
0.000905
0.000923
0.000908
0.000926
0.000937
0.000979
0.000984
0.000976
0.000942
0.000902
0.000923
0.000958
0.000855
0.000771
0.000748
0.000771
0.000748
0.000777
0.000792
0.000748
0.000693
0.000719
0.000795
0.000874
0.000879
0.000910
0.000931
0.000931
0.000900
0.000863
0.000858
0.000837
0.000771
0.000756
0.000805
0.000845
0.000921
0.001007
0.001094
0.001110
0.001084
0.001036
0.000997
0.000971
0.000986
0.001044
0.000965
0.000884
0.000850
0.000821
0.000777
0.000724
0.000677
0.000682
0.000811
0.000931
0.001018
0.000984
0.000994
0.000994
0.000937
0.000905
0.000921
0.000939
0.000934
0.001010
0.001010
0.001013
0.001013
0.000973
0.000876
0.000834
0.000874
0.000931
0.000889
0.000892
0.000892
0.000923
0.000952
0.000939
0.000910
0.000855
0.000874
0.000976
0.000981
0.001018
0.000973
0.000923
0.000963
0.000994
0.000997
0.000916
0.000934
0.000889
0.000829
0.000795
0.000769
0.000679
0.000664
0.000716
0.000758
0.000855
0.000918
0.000918
0.000863
0.000871
0.000792
0.000769
0.000792
0.000834
0.000916
0.000958
0.000992
0.001036
0.000981
0.000976
0.000989
0.001018
0.000984
0.000976
0.001028
0.001076
0.001097
0.001028
0.000968
0.000926
0.000892
0.000926
0.000916
0.000871
0.000813
0.000803
0.000845
0.000871
0.000892
0.000939
0.001047
0.001084
0.001021
0.001002
0.000955
0.000913
0.000871
0.000905
0.000960
0.000960
0.000976
0.000997
0.001018
0.000960
0.000918
0.000947
0.000952
0.000923
0.000902
0.000955
0.001015
0.000984
0.000965
0.000929
0.000910
0.000908
0.000921
0.000944
0.000931
0.000965
0.001039
0.001068
0.001005
0.001010
0.001057
0.001076
0.001052
0.001010
0.000960
0.000910
0.000845
0.000829
0.000879
0.000916
0.000937
0.000958
0.000997
0.001018
0.000994
0.000973
0.000918
0.000913
0.000902
0.000955
0.000929
0.000902
0.000905
0.000942
0.000942
0.000939
0.000918
0.000923
0.000861
0.000803
0.000800
0.000790
0.000732
0.000716
0.000792
0.000887
0.000950
0.000916
0.000916
0.000884
0.000861
0.000902
0.000916
0.000918
0.000965
0.001034
0.001055
0.001070
0.001034
0.001047
0.001044
0.001005
0.000981
0.000986
0.000965
0.000887
0.000826
0.000826
0.000840
0.000842
0.000868
0.000876
0.000863
0.000871
0.000892
0.000942
0.000926
0.000871
0.000879
0.000942
0.000934
0.000910
0.000889
0.000832
0.000858
0.000845
0.000889
0.000934
0.000963
0.000986
0.001013
0.000979
0.000942
0.000944
0.000939
0.000944
0.001005
0.001018
0.000910
0.000858
0.000808
0.000782
0.000837
0.000937
0.000984
0.000973
0.001034
0.001068
0.001026
0.000926
0.000892
0.000939
0.000973
0.000989
0.000973
0.000916
0.000889
0.000884
0.000908
0.000847
0.000850
0.000897
0.000892
0.000929
0.001021
0.001023
0.000958
0.000976
0.001023
0.001076
0.001068
0.001063
0.001013
0.000979
0.000971
0.000947
0.000947
0.000923
0.000955
0.000976
0.000929
0.000952
0.000944
0.001010
0.001063
0.001081
0.001039
0.000947
0.000984
0.000958
0.000879
0.000944
0.001034
0.001068
0.001084
0.001091
0.001005
0.000960
0.000973
0.001028
0.000976
0.000792
0.000740
0.000766
0.000735
0.000798
0.000884
0.000931
0.000895
0.000918
0.000905
0.000882
0.000871
0.000913
0.000963
0.001047
0.001076
0.001089
0.001005
0.000958
0.001013
0.001055
0.000994
0.000965
0.000931
0.000958
0.001031
0.001063
0.001055
0.001034
0.001021
0.001047
0.001010
0.000965
0.000916
0.000923
0.000979
0.001002
0.001047
0.001000
0.000926
0.000944
0.000994
0.001044
0.000973
0.000942
0.000929
0.000926
0.000986
0.001026
0.001013
0.000952
0.000939
0.000984
0.000994
0.001023
0.001015
0.001005
0.000989
0.001005
0.001044
0.001000
0.000976
0.000981
0.000947
0.000976
0.000958
0.000989
0.001005
0.001018
0.000965
0.001007
0.001042
0.001031
0.000994
0.000984
0.001031
0.000989
0.000947
0.000965
0.000976
0.001013
0.000942
0.000871
0.000842
0.000855
0.000868
0.000931
0.001005
0.001015
0.000955
0.000960
0.000997
0.000994
0.000984
0.001002
0.000973
0.000934
0.000889
0.000955
0.000981
0.001026
0.001052
0.001091
0.001147
0.001173
0.001165
0.001115
0.001141
0.001094
0.000984
0.000979
0.001018
0.000984
0.000944
0.001007
0.001021
0.001005
0.001034
0.001076
0.001126
0.001089
0.001084
0.001110
0.001123
0.001128
0.001105
0.001094
0.001060
0.001068
0.001084
0.001073
0.001065
0.001070
0.001031
0.000976
0.000968
0.000955
0.000942
0.000955
0.000963
0.000994
0.001010
0.001042
0.001052
0.001034
0.001047
0.001081
0.001097
0.001089
0.001047
0.001031
0.001028
0.001042
0.001005
0.001047
0.001073
0.001102
0.001089
0.001055
0.001039
0.000984
0.000950
0.000976
0.001031
0.001034
0.001036
0.001063
0.001065
0.001070
0.001000
0.000973
0.000984
0.000958
0.000965
0.000968
0.000950
0.000931
0.000942
0.000947
0.000921
0.000947
0.000971
0.000997
0.001031
0.001094
0.001063
0.001068
0.001042
0.000973
0.000947
0.000952
0.000965
0.000939
0.000952
0.000981
0.000989
0.000900
0.000808
0.000771
0.000850
0.000916
0.000874
0.000910
0.000955
0.001018
0.001002
0.001031
0.001049
0.001047
0.001039
0.001091
0.001152
0.001091
0.001044
0.001039
0.001089
0.001034
0.000929
0.000816
0.000779
0.000853
0.000952
0.000979
0.001036
0.001042
0.001013
0.001060
0.001110
0.001034
0.000934
0.000944
0.001031
0.001084
0.001042
0.001049
0.001078
0.001007
0.000902
0.000910
0.000960
0.001007
0.001021
0.001010
0.000992
0.000981
0.000981
0.000958
0.000950
0.000963
0.000997
0.001068
0.001076
0.001000
0.000973
0.001010
0.001034
0.001065
0.001099
0.001076
0.001070
0.001036
0.001026
0.001028
0.001002
0.001010
0.000992
0.001026
0.001036
0.001052
0.001044
0.000981
0.000971
0.001000
0.000918
0.000931
0.000892
0.000882
0.000855
0.000884
0.000960
0.000921
0.000921
0.000965
0.001047
0.001000
0.001007
0.001068
0.001084
0.001044
0.000979
0.001007
0.001005
0.000997
0.000965
0.000992
0.000984
0.000952
0.000963
0.001044
0.001084
0.001055
0.001039
0.001047
0.001063
0.001023
0.001007
0.001015
0.001136
0.001160
0.001107
0.001060
0.000971
0.000939
0.000926
0.000955
0.000971
0.001013
0.001036
0.001099
0.001112
0.001026
0.000971
0.000965
0.001028
0.001057
0.001034
0.001057
0.001036
0.000984
0.000934
0.000889
0.000913
0.000952
0.000947
0.001010
0.001039
0.001070
0.001118
0.001139
0.001157
0.001073
0.001034
0.001044
0.001060
0.001049
0.001063
0.001086
0.001110
0.001131
0.001120
0.001105
0.001057
0.000976
0.000950
0.000984
0.001034
0.001084
0.001084
0.001049
0.001049
0.001023
0.000902
0.000742
0.000737
0.000861
0.000947
0.001007
0.001110
0.001112
0.001073
0.001081
0.001112
0.001065
0.000992
0.001065
0.001065
0.001047
0.001023
0.001002
0.000950
0.000934
0.000981
0.001097
0.001136
0.001118
0.001055
0.001007
0.001002
0.001007
0.001047
0.001049
0.001060
0.001055
0.001039
0.000986
0.000929
0.000971
0.000986
0.001028
0.001047
0.001010
0.000979
0.001036
0.001089
0.001076
0.000968
0.000916
0.000897
0.000952
0.001039
0.001052
0.001078
0.001110
0.001063
0.001042
0.001073
0.001047
0.001044
0.001044
0.001091
0.001099
0.001034
0.001013
0.001042
0.001013
0.000971
0.001000
0.001047
0.001034
0.001021
0.001023
0.001052
0.001086
0.001078
0.001110
0.001120
0.001115
0.001102
0.001091
0.001063
0.001028
0.001047
0.001084
0.001157
0.001149
0.001126
0.001162
0.001157
0.001131
0.001065
0.001018
0.001005
0.001002
0.001021
0.001002
0.000986
0.001042
0.001044
0.001010
0.001039
0.001021
0.000992
0.000989
0.000963
0.000900
0.000876
0.000944
0.001015
0.001036
0.001068
0.001015
0.000965
0.001010
0.001057
0.001070
0.001057
0.001028
0.001005
0.000926
0.000845
0.000842
0.000931
0.001039
0.001102
0.001152
0.001149
0.001147
0.001120
0.001086
0.001057
0.001094
0.001049
0.001039
0.001063
0.001068
0.001057
0.001084
0.001063
0.001044
0.001023
0.001073
0.001081
0.001028
0.001149
0.001178
0.001120
0.001057
0.001084
0.001126
0.001065
0.001057
0.001060
0.001013
0.000997
0.001021
0.001076
0.001091
0.001070
0.001102
0.001057
0.001015
0.000923
0.000944
0.000968
0.000939
0.000958
0.001044
0.001010
0.000916
0.000902
0.000968
0.001049
0.001031
0.001034
0.001089
0.001063
0.001115
0.001165
0.001157
0.001112
0.001097
0.001089
0.001073
0.001049
0.000960
0.000879
0.000942
0.001005
0.001068
0.001021
0.000979
0.000960
0.001018
0.001042
0.001078
0.001128
0.001144
0.001091
0.001063
0.001126
0.001157
0.001060
0.001049
0.001099
0.001099
0.001126
0.001160
0.001123
0.000981
0.000905
0.000942
0.001005
0.000994
0.001000
0.001060
0.001036
0.001007
0.001015
0.001007
0.001086
0.001089
0.001128
0.001120
0.001094
0.001073
0.001021
0.001028
0.001026
0.001078
0.001091
0.001152
0.001144
0.001141
0.001170
0.001165
0.001128
0.001128
0.001136
0.001136
0.001123
0.001102
0.001120
0.001084
0.001057
0.001102
0.001168
0.001141
0.001128
0.001099
0.001015
0.000929
0.000992
0.001023
0.000986
0.000952
0.000979
0.000984
0.000939
0.000976
0.001000
0.001047
0.001107
0.001162
0.001217
0.001168
0.001115
0.001039
0.000960
0.000955
0.000994
0.001015
0.000973
0.001018
0.001049
0.001039
0.001031
0.001018
0.000997
0.001000
0.001081
0.001115
0.001094
0.001089
0.001028
0.000968
0.001005
0.001023
0.000984
0.000934
0.000955
0.000997
0.000968
0.001031
0.001031
0.000984
0.000979
0.000992
0.001028
0.000984
0.000992
0.001065
0.001060
0.001084
0.001123
0.001147
0.001118
0.001128
0.001123
0.001081
0.001047
0.001076
0.001068
0.001063
0.001036
0.001007
0.001015
0.001015
0.001039
0.001091
0.001115
0.001126
0.001089
0.001126
0.001133
0.001120
0.001086
0.001015
0.001028
0.001055
0.001131
0.001202
0.001157
0.001147
0.001123
0.001099
0.001052
0.001034
0.001097
0.001110
0.001126
0.001123
0.001154
0.001157
0.001107
0.001128
0.001118
0.001107
0.001099
0.001118
0.001144
0.001178
0.001178
0.001154
0.001175
0.001107
0.001044
0.001047
0.001052
0.001073
0.001055
0.001060
0.001081
0.001076
0.001081
0.001060
0.001005
0.001036
0.001105
0.001078
0.001081
0.001136
0.001144
0.001091
0.001091
0.001120
0.001094
0.001049
0.001068
0.001089
0.001039
0.001002
0.000989
0.000952
0.000994
0.001042
0.001110
0.001144
0.001141
0.001128
0.001123
0.001110
0.001084
0.001091
0.001091
0.001097
0.001063
0.001118
0.001147
0.001107
0.001052
0.001120
0.001170
0.001128
0.001086
0.001031
0.001002
0.001039
0.001055
0.001036
0.001015
0.000992
0.001042
0.001168
0.001241
0.001246
0.001199
0.001099
0.001055
0.001086
0.001099
0.001097
0.001078
0.001070
0.001068
0.001042
0.001073
0.001136
0.001170
0.001144
0.001105
0.001120
0.001065
0.001044
0.001081
0.001152
0.001131
0.001144
0.001199
0.001217
0.001204
0.001178
0.001149
0.001147
0.001147
0.001173
0.001162
0.001173
0.001131
0.001078
0.001091
0.001086
0.001078
0.001007
0.001007
0.000997
0.000994
0.001063
0.001078
0.001073
0.001042
0.001026
0.000979
0.001005
0.001044
0.001057
0.001068
0.001107
0.001149
0.001168
0.001073
0.001036
0.001052
0.001055
0.001065
0.001036
0.001002
0.001005
0.001042
0.001034
0.001028
0.001049
0.001063
0.001094
0.001139
0.001110
0.001073
0.001094
0.001107
0.001073
0.001076
0.001031
0.001005
0.000973
0.000971
0.000960
0.000979
0.001015
0.001078
0.001065
0.001076
0.001115
0.001097
0.001110
0.001162
0.001230
0.001230
0.001196
0.001154
0.001136
0.001076
0.001034
0.001018
0.001060
0.001131
0.001170
0.001154
0.001209
0.001170
0.001107
0.001068
0.001105
0.001094
0.001086
0.001123
0.001186
0.001165
0.001147
0.001089
0.001086
0.001110
0.001188
0.001249
0.001233
0.001223
0.001141
0.001070
0.001031
0.000992
0.000968
0.000929
0.000971
0.001013
0.001081
0.001086
0.001089
0.001099
0.001057
0.001047
0.001057
0.001036
0.001036
0.001076
0.001039
0.001010
0.001028
0.001044
0.001034
0.000986
0.001073
0.001131
0.001099
0.001073
0.001105
0.001057
0.001021
0.001036
0.001094
0.001120
0.001136
0.001136
0.001102
0.001110
0.001115
0.001120
0.001168
0.001188
0.001225
0.001238
0.001175
0.001126
0.001073
0.001007
0.000979
0.000992
0.001060
0.001084
0.001115
0.001112
0.001133
0.001112
0.001105
0.001073
0.001060
0.001036
0.001076
0.001105
0.001099
0.001102
0.001070
0.001105
0.001183
0.001244
0.001228
0.001228
0.001225
0.001181
0.001209
0.001188
0.001144
0.001086
0.001094
0.001097
0.001097
0.001126
0.001165
0.001188
0.001126
0.001070
0.001007
0.000968
0.001034
0.001013
0.000965
0.000976
0.000984
0.001031
0.001141
0.001178
0.001126
0.001097
0.001131
0.001149
0.001173
0.001175
0.001207
0.001228
0.001157
0.001144
0.001157
0.001115
0.001034
0.001015
0.001073
0.001060
0.001099
0.001139
0.001202
0.001175
0.001136
0.001081
0.001128
0.001162
0.001131
0.001105
0.001115
0.001133
0.001136
0.001152
0.001246
0.001207
0.001191
0.001165
0.001194
0.001154
0.001063
0.000997
0.001010
0.001026
0.001042
0.001094
0.001115
0.001126
0.001144
0.001120
0.001144
0.001196
0.001154
0.001115
0.001112
0.001126
0.001131
0.001175
0.001196
0.001154
0.001105
0.001091
0.001070
0.001091
0.001086
0.001034
0.001010
0.001063
0.001126
0.001120
0.001099
0.001097
0.001078
0.000992
0.001026
0.001097
0.001133
0.001126
0.001133
0.001191
0.001173
0.001068
0.001015
0.001013
0.001031
0.001002
0.001013
0.001034
0.001073
0.001028
0.001105
0.001191
0.001215
0.001181
0.001154
0.001191
0.001202
t0(sec) = 0.000000E+0
dt(sec) = 4.000000E-10
F3:INSP "
DESCRIPTOR_NAME    : WAVEDESC           
TEMPLATE_NAME      : LECROY_2_3         
COMM_TYPE          : word               
COMM_ORDER         : HIFIRST            
WAVE_DESCRIPTOR    : 346                
USER_TEXT          : 0                  
RES_DESC1          : 0                  
TRIGTIME_ARRAY     : 0                  
RIS_TIME_ARRAY     : 0                  
RES_ARRAY1         : 0                  
WAVE_ARRAY_1       : 9952               
WAVE_ARRAY_2       : 0                  
RES_ARRAY2         : 0                  
RES_ARRAY3         : 0                  
INSTRUMENT_NAME    : LECROYHDO6104      
INSTRUMENT_NUMBER  : 6308               
TRACE_LABEL        :                    
RESERVED1          : 4976               
RESERVED2          : 0                  
WAVE_ARRAY_COUNT   : 4976               
PNTS_PER_SCREEN    : 5000               
FIRST_VALID_PNT    : 0                  
LAST_VALID_PNT     : 4975               
FIRST_POINT        : 0                  
SPARSING_FACTOR    : 1                  
SEGMENT_INDEX      : 0                  
SUBARRAY_COUNT     : 1                  
SWEEPS_PER_ACQ     : 200                
POINTS_PER_PAIR    : 0                  
PAIR_OFFSET        : 0                  
VERTICAL_GAIN      : 2.4989e-006        
VERTICAL_OFFSET    : 1.6500e-002        
MAX_VALUE          : 3.0578e+004        
MIN_VALUE          : 1.4827e+004        
NOMINAL_BITS       : 16                 
NOM_SUBARRAY_COUNT : 1                  
HORIZ_INTERVAL     : 4.0000e-010        
HORIZ_OFFSET       : -2.00000000e-007   
PIXEL_OFFSET       : -2.10000000e-007   
VERTUNIT           : Unit Name = V
HORUNIT            : Unit Name = S
HORIZ_UNCERTAINTY  : 1.0000e-012        
TRIGGER_TIME       : Date = APR 17, 2024, Time = 19:35:41.450611058
ACQ_DURATION       : 9.9988e+000        
RECORD_TYPE        : single_sweep       
PROCESSING_DONE    : no_processing      
RESERVED5          : 0                  
RIS_SWEEPS         : 1                  
TIMEBASE           : 200_ns/div         
VERT_COUPLING      : DC_50_Ohms         
PROBE_ATT          : 1.0000e+000        
FIXED_VERT_GAIN    : 5_mV/div           
BANDWIDTH_LIMIT    : off                
VERTICAL_VERNIER   : 1.0000e+000        
ACQ_VERT_OFFSET    : 0.0000e+000        
WAVE_SOURCE        : UNKNOWN            
"
0.000502
0.000505
0.000517
0.000497
0.000480
0.000477
0.000522
0.000495
0.000482
0.000507
0.000492
0.000475
0.000472
0.000500
0.000472
0.000482
0.000535
0.000477
0.000510
0.000512
0.000490
0.000470
0.000472
0.000505
0.000480
0.000490
0.000515
0.000470
0.000480
0.000512
0.000497
0.000442
0.000485
0.000470
0.000465
0.000465
0.000480
0.000457
0.000470
0.000477
0.000500
0.000465
0.000477
0.000505
0.000520
0.000475
0.000527
0.000510
0.000492
0.000525
0.000530
0.000482
0.000512
0.000500
0.000477
0.000487
0.000535
0.000487
0.000502
0.000505
0.000497
0.000450
0.000492
0.000492
0.000475
0.000490
0.000512
0.000492
0.000482
0.000510
0.000520
0.000472
0.000505
0.000507
0.000495
0.000500
0.000525
0.000510
0.000510
0.000500
0.000505
0.000482
0.000480
0.000485
0.000497
0.000470
0.000517
0.000517
0.000472
0.000510
0.000515
0.000465
0.000482
0.000532
0.000490
0.000495
0.000512
0.000490
0.000500
0.000507
0.000507
0.000472
0.000487
0.000475
0.000487
0.000472
0.000505
0.000492
0.000465
0.000472
0.000515
0.000477
0.000502
0.000525
0.000490
0.000470
0.000495
0.000485
0.000477
0.000517
0.000480
0.000467
0.000510
0.000480
0.000465
0.000477
0.000505
0.000510
0.000460
0.000487
0.000497
0.000497
0.000457
0.000500
0.000502
0.000457
0.000527
0.000500
0.000472
0.000495
0.000520
0.000467
0.000502
0.000522
0.000477
0.000492
0.000490
0.000487
0.000477
0.000487
0.000522
0.000452
0.000482
0.000492
0.000467
0.000490
0.000507
0.000490
0.000480
0.000520
0.000495
0.000487
0.000485
0.000505
0.000477
0.000490
0.000510
0.000480
0.000485
0.000497
0.000510
0.000480
0.000497
0.000510
0.000500
0.000477
0.000515
0.000522
0.000475
0.000497
0.000495
0.000487
0.000502
0.000527
0.000480
0.000480
0.000517
0.000507
0.000475
0.000515
0.000512
0.000485
0.000492
0.000535
0.000507
0.000465
0.000482
0.000485
0.000475
0.000507
0.000530
0.000455
0.000492
0.000485
0.000490
0.000460
0.000500
0.000510
0.000472
0.000505
0.000522
0.000487
0.000462
0.000520
0.000490
0.000480
0.000532
0.000502
0.000465
0.000527
0.000492
0.000467
0.000500
0.000492
0.000480
0.000460
0.000485
0.000462
0.000490
0.000482
0.000500
0.000462
0.000467
0.000507
0.000525
0.000477
0.000510
0.000492
0.000457
0.000512
0.000520
0.000485
0.000485
0.000502
0.000502
0.000482
0.000505
0.000475
0.000477
0.000460
0.000487
0.000490
0.000462
0.000502
0.000500
0.000462
0.000495
0.000485
0.000485
0.000490
0.000500
0.000502
0.000507
0.000497
0.000520
0.000515
0.000502
0.000467
0.000470
0.000490
0.000505
0.000477
0.000475
0.000490
0.000487
0.000457
0.000480
0.000470
0.000480
0.000477
0.000507
0.000492
0.000485
0.000500
0.000475
0.000482
0.000502
0.000490
0.000512
0.000502
0.000535
0.000480
0.000507
0.000517
0.000487
0.000477
0.000512
0.000495
0.000490
0.000495
0.000490
0.000435
0.000500
0.000475
0.000487
0.000485
0.000492
0.000495
0.000487
0.000472
0.000512
0.000470
0.000460
0.000507
0.000500
0.000487
0.000520
0.000480
0.000477
0.000485
0.000505
0.000467
0.000502
0.000512
0.000472
0.000482
0.000515
0.000497
0.000467
0.000485
0.000505
0.000495
0.000492
0.000510
0.000520
0.000455
0.000487
0.000492
0.000445
0.000485
0.000515
0.000477
0.000505
0.000502
0.000490
0.000450
0.000462
0.000465
0.000480
0.000462
0.000507
0.000460
0.000457
0.000527
0.000480
0.000450
0.000502
0.000490
0.000455
0.000512
0.000515
0.000477
0.000490
0.000507
0.000490
0.000472
0.000520
0.000525
0.000495
0.000500
0.000492
0.000467
0.000475
0.000497
0.000515
0.000480
0.000520
0.000500
0.000475
0.000465
0.000520
0.000470
0.000490
0.000505
0.000500
0.000502
0.000512
0.000532
0.000487
0.000482
0.000500
0.000495
0.000495
0.000522
0.000497
0.000480
0.000470
0.000482
0.000447
0.000485
0.000515
0.000490
0.000505
0.000512
0.000530
0.000505
0.000515
0.000510
0.000522
0.000500
0.000550
0.000545
0.000512
0.000497
0.000510
0.000485
0.000462
0.000467
0.000475
0.000475
0.000477
0.000455
0.000477
0.000467
0.000487
0.000487
0.000522
0.000517
0.000497
0.000490
0.000457
0.000450
0.000427
0.000460
0.000507
0.000505
0.000537
0.000540
0.000520
0.000505
0.000472
0.000442
0.000477
0.000500
0.000532
0.000517
0.000527
0.000465
0.000447
0.000432
0.000470
0.000500
0.000547
0.000585
0.000572
0.000555
0.000467
0.000425
0.000402
0.000387
0.000447
0.000440
0.000502
0.000527
0.000495
0.000527
0.000542
0.000547
0.000555
0.000512
0.000515
0.000417
0.000402
0.000362
0.000372
0.000410
0.000467
0.000517
0.000515
0.000555
0.000507
0.000497
0.000510
0.000520
0.000565
0.000567
0.000592
0.000585
0.000515
0.000442
0.000425
0.000370
0.000400
0.000437
0.000477
0.000495
0.000545
0.000485
0.000490
0.000490
0.000517
0.000517
0.000575
0.000610
0.000545
0.000465
0.000455
0.000375
0.000327
0.000315
0.000342
0.000305
0.000337
0.000392
0.000467
0.000532
0.000635
0.000692
0.000705
0.000670
0.000630
0.000580
0.000580
0.000595
0.000617
0.000545
0.000535
0.000525
0.000445
0.000425
0.000460
0.000467
0.000437
0.000427
0.000412
0.000372
0.000375
0.000372
0.000412
0.000485
0.000562
0.000632
0.000702
0.000725
0.000692
0.000590
0.000497
0.000387
0.000247
0.000122
0.000105
0.000105
0.000167
0.000277
0.000417
0.000547
0.000682
0.000780
0.000870
0.000865
0.000925
0.000875
0.000792
0.000655
0.000425
0.000140
-0.000287
-0.000980
-0.002102
-0.003841
-0.006330
-0.009541
-0.013144
-0.016300
-0.018594
-0.020641
-0.022452
-0.024002
-0.025134
-0.025978
-0.026578
-0.027035
-0.027318
-0.027395
-0.027360
-0.027195
-0.026870
-0.026483
-0.025876
-0.025249
-0.024641
-0.024032
-0.023467
-0.023052
-0.022692
-0.022407
-0.022142
-0.021978
-0.021775
-0.021628
-0.021518
-0.021360
-0.021093
-0.020736
-0.020318
-0.019846
-0.019366
-0.018916
-0.018562
-0.018217
-0.017879
-0.017570
-0.017227
-0.016865
-0.016490
-0.016180
-0.015873
-0.015525
-0.015128
-0.014821
-0.014581
-0.014328
-0.013969
-0.013564
-0.013231
-0.012829
-0.012417
-0.012127
-0.011785
-0.011452
-0.011200
-0.011057
-0.010958
-0.010833
-0.010755
-0.010635
-0.010475
-0.010238
-0.009856
-0.009473
-0.009036
-0.008651
-0.008291
-0.007916
-0.007652
-0.007472
-0.007314
-0.007269
-0.007299
-0.007379
-0.007397
-0.007374
-0.007352
-0.007202
-0.007004
-0.006789
-0.006545
-0.006412
-0.006175
-0.005995
-0.005840
-0.005725
-0.005572
-0.005503
-0.005515
-0.005535
-0.005572
-0.005627
-0.005700
-0.005695
-0.005612
-0.005607
-0.005562
-0.005433
-0.005303
-0.005173
-0.005048
-0.004860
-0.004693
-0.004565
-0.004500
-0.004478
-0.004453
-0.004455
-0.004468
-0.004463
-0.004366
-0.004373
-0.004283
-0.004273
-0.004253
-0.004261
-0.004218
-0.004101
-0.003998
-0.003848
-0.003706
-0.003573
-0.003473
-0.003461
-0.003461
-0.003488
-0.003528
-0.003551
-0.003513
-0.003468
-0.003428
-0.003418
-0.003334
-0.003224
-0.003049
-0.002999
-0.002921
-0.002901
-0.002911
-0.002921
-0.003014
-0.003076
-0.003099
-0.003106
-0.003109
-0.003066
-0.002984
-0.002881
-0.002756
-0.002611
-0.002441
-0.002364
-0.002289
-0.002261
-0.002229
-0.002199
-0.002127
-0.002082
-0.002042
-0.002069
-0.002109
-0.002167
-0.002184
-0.002172
-0.002197
-0.002242
-0.002249
-0.002261
-0.002251
-0.002224
-0.002197
-0.002234
-0.002261
-0.002314
-0.002329
-0.002356
-0.002314
-0.002299
-0.002229
-0.002109
-0.002032
-0.001949
-0.001894
-0.001842
-0.001759
-0.001717
-0.001664
-0.001672
-0.001682
-0.001674
-0.001669
-0.001697
-0.001732
-0.001742
-0.001722
-0.001712
-0.001624
-0.001594
-0.001609
-0.001609
-0.001542
-0.001487
-0.001432
-0.001344
-0.001322
-0.001344
-0.001287
-0.001289
-0.001272
-0.001257
-0.001264
-0.001309
-0.001352
-0.001359
-0.001339
-0.001347
-0.001337
-0.001312
-0.001307
-0.001322
-0.001314
-0.001317
-0.001324
-0.001324
-0.001282
-0.001262
-0.001194
-0.001174
-0.001194
-0.001162
-0.001132
-0.001147
-0.001117
-0.001122
-0.001082
-0.001117
-0.001162
-0.001164
-0.001177
-0.001154
-0.001077
-0.001047
-0.000987
-0.000890
-0.000832
-0.000827
-0.000752
-0.000752
-0.000745
-0.000790
-0.000792
-0.000852
-0.000900
-0.000940
-0.000965
-0.000985
-0.000960
-0.000937
-0.000905
-0.000862
-0.000760
-0.000727
-0.000670
-0.000605
-0.000595
-0.000617
-0.000622
-0.000672
-0.000732
-0.000765
-0.000742
-0.000740
-0.000727
-0.000755
-0.000767
-0.000802
-0.000822
-0.000820
-0.000835
-0.000850
-0.000830
-0.000842
-0.000817
-0.000790
-0.000772
-0.000720
-0.000710
-0.000652
-0.000620
-0.000570
-0.000527
-0.000537
-0.000530
-0.000530
-0.000512
-0.000472
-0.000492
-0.000487
-0.000470
-0.000430
-0.000402
-0.000397
-0.000372
-0.000355
-0.000380
-0.000397
-0.000362
-0.000390
-0.000375
-0.000415
-0.000380
-0.000417
-0.000442
-0.000452
-0.000445
-0.000470
-0.000467
-0.000462
-0.000482
-0.000455
-0.000400
-0.000390
-0.000327
-0.000335
-0.000342
-0.000370
-0.000370
-0.000437
-0.000450
-0.000502
-0.000502
-0.000532
-0.000520
-0.000517
-0.000515
-0.000505
-0.000447
-0.000422
-0.000335
-0.000295
-0.000260
-0.000197
-0.000137
-0.000090
-0.000110
-0.000125
-0.000147
-0.000152
-0.000182
-0.000212
-0.000192
-0.000225
-0.000202
-0.000182
-0.000165
-0.000162
-0.000137
-0.000130
-0.000137
-0.000212
-0.000242
-0.000272
-0.000325
-0.000332
-0.000342
-0.000402
-0.000355
-0.000392
-0.000387
-0.000350
-0.000262
-0.000207
-0.000087
-0.000015
0.000037
0.000010
0.000002
-0.000008
-0.000048
-0.000092
-0.000115
-0.000210
-0.000227
-0.000235
-0.000235
-0.000227
-0.000172
-0.000160
-0.000100
-0.000048
-0.000043
-0.000062
-0.000115
-0.000177
-0.000190
-0.000252
-0.000280
-0.000255
-0.000270
-0.000262
-0.000227
-0.000202
-0.000142
-0.000092
-0.000038
-0.000005
0.000055
0.000077
0.000102
0.000102
0.000117
0.000062
0.000052
0.000030
-0.000013
-0.000077
-0.000085
-0.000100
-0.000080
-0.000105
-0.000077
-0.000105
-0.000070
-0.000102
-0.000075
-0.000067
-0.000067
-0.000077
-0.000077
-0.000097
-0.000107
-0.000105
-0.000070
-0.000070
-0.000000
0.000032
0.000072
0.000112
0.000115
0.000080
0.000100
0.000070
0.000072
0.000035
-0.000008
-0.000028
-0.000040
-0.000090
-0.000080
-0.000085
-0.000075
-0.000067
-0.000000
0.000052
0.000090
0.000115
0.000127
0.000140
0.000147
0.000137
0.000102
0.000072
0.000005
-0.000038
-0.000050
-0.000097
-0.000105
-0.000090
-0.000055
-0.000030
0.000027
0.000015
0.000065
0.000090
0.000095
0.000097
0.000072
0.000037
0.000025
-0.000023
-0.000005
-0.000023
0.000010
0.000010
0.000030
0.000015
0.000057
0.000110
0.000105
0.000157
0.000172
0.000170
0.000185
0.000142
0.000105
0.000080
0.000032
0.000015
0.000010
0.000025
0.000077
0.000092
0.000125
0.000155
0.000225
0.000207
0.000247
0.000262
0.000275
0.000245
0.000227
0.000190
0.000142
0.000132
0.000112
0.000065
0.000112
0.000125
0.000125
0.000122
0.000142
0.000170
0.000177
0.000182
0.000192
0.000157
0.000150
0.000117
0.000100
0.000057
0.000040
0.000020
0.000015
0.000027
0.000050
0.000057
0.000105
0.000140
0.000232
0.000275
0.000315
0.000335
0.000350
0.000337
0.000302
0.000237
0.000195
0.000160
0.000160
0.000127
0.000172
0.000170
0.000167
0.000177
0.000205
0.000192
0.000205
0.000212
0.000232
0.000205
0.000215
0.000220
0.000210
0.000185
0.000162
0.000142
0.000135
0.000120
0.000157
0.000175
0.000190
0.000212
0.000227
0.000230
0.000245
0.000232
0.000217
0.000192
0.000185
0.000142
0.000112
0.000105
0.000127
0.000150
0.000175
0.000205
0.000207
0.000237
0.000290
0.000290
0.000267
0.000275
0.000245
0.000217
0.000217
0.000177
0.000237
0.000205
0.000212
0.000207
0.000222
0.000222
0.000245
0.000215
0.000242
0.000237
0.000247
0.000237
0.000230
0.000227
0.000200
0.000212
0.000172
0.000137
0.000125
0.000112
0.000127
0.000122
0.000187
0.000192
0.000210
0.000237
0.000272
0.000270
0.000270
0.000262
0.000242
0.000180
0.000215
0.000175
0.000185
0.000220
0.000215
0.000222
0.000242
0.000252
0.000277
0.000295
0.000345
0.000347
0.000332
0.000315
0.000347
0.000312
0.000317
0.000310
0.000282
0.000260
0.000215
0.000212
0.000222
0.000252
0.000287
0.000265
0.000275
0.000302
0.000307
0.000312
0.000327
0.000282
0.000232
0.000200
0.000220
0.000185
0.000220
0.000215
0.000225
0.000222
0.000242
0.000277
0.000272
0.000282
0.000312
0.000295
0.000345
0.000322
0.000310
0.000260
0.000267
0.000232
0.000267
0.000232
0.000247
0.000232
0.000207
0.000215
0.000227
0.000232
0.000255
0.000242
0.000270
0.000260
0.000285
0.000240
0.000240
0.000220
0.000225
0.000185
0.000225
0.000230
0.000245
0.000292
0.000287
0.000292
0.000312
0.000340
0.000342
0.000325
0.000332
0.000340
0.000300
0.000310
0.000285
0.000255
0.000262
0.000240
0.000260
0.000260
0.000255
0.000265
0.000275
0.000262
0.000312
0.000312
0.000277
0.000300
0.000322
0.000300
0.000312
0.000275
0.000307
0.000280
0.000272
0.000307
0.000330
0.000335
0.000332
0.000365
0.000380
0.000395
0.000375
0.000350
0.000350
0.000345
0.000310
0.000297
0.000320
0.000277
0.000280
0.000275
0.000287
0.000272
0.000280
0.000265
0.000295
0.000307
0.000275
0.000302
0.000325
0.000292
0.000335
0.000285
0.000327
0.000312
0.000310
0.000302
0.000317
0.000260
0.000290
0.000292
0.000310
0.000322
0.000355
0.000342
0.000365
0.000350
0.000337
0.000332
0.000317
0.000272
0.000282
0.000275
0.000277
0.000272
0.000282
0.000277
0.000275
0.000265
0.000282
0.000297
0.000295
0.000287
0.000315
0.000295
0.000302
0.000265
0.000287
0.000290
0.000287
0.000307
0.000310
0.000295
0.000327
0.000322
0.000350
0.000362
0.000400
0.000372
0.000395
0.000400
0.000360
0.000350
0.000352
0.000312
0.000312
0.000305
0.000300
0.000275
0.000275
0.000302
0.000290
0.000292
0.000305
0.000300
0.000327
0.000310
0.000367
0.000322
0.000355
0.000330
0.000337
0.000322
0.000352
0.000322
0.000310
0.000315
0.000302
0.000310
0.000287
0.000265
0.000257
0.000250
0.000315
0.000320
0.000307
0.000357
0.000385
0.000367
0.000370
0.000385
0.000355
0.000347
0.000377
0.000335
0.000340
0.000320
0.000337
0.000307
0.000320
0.000292
0.000315
0.000310
0.000307
0.000310
0.000322
0.000322
0.000347
0.000317
0.000340
0.000367
0.000327
0.000355
0.000370
0.000355
0.000330
0.000320
0.000340
0.000312
0.000335
0.000375
0.000367
0.000355
0.000400
0.000355
0.000340
0.000337
0.000335
0.000337
0.000355
0.000395
0.000392
0.000322
0.000377
0.000330
0.000322
0.000327
0.000352
0.000307
0.000342
0.000332
0.000315
0.000307
0.000300
0.000327
0.000330
0.000315
0.000362
0.000342
0.000345
0.000340
0.000355
0.000342
0.000355
0.000367
0.000347
0.000365
0.000370
0.000330
0.000310
0.000277
0.000297
0.000292
0.000317
0.000327
0.000307
0.000295
0.000337
0.000295
0.000337
0.000330
0.000342
0.000325
0.000365
0.000362
0.000375
0.000352
0.000340
0.000337
0.000365
0.000357
0.000320
0.000325
0.000335
0.000290
0.000297
0.000295
0.000317
0.000290
0.000312
0.000362
0.000372
0.000377
0.000415
0.000395
0.000377
0.000420
0.000417
0.000400
0.000427
0.000392
0.000380
0.000352
0.000390
0.000365
0.000352
0.000370
0.000395
0.000337
0.000330
0.000360
0.000330
0.000347
0.000382
0.000372
0.000380
0.000372
0.000360
0.000327
0.000332
0.000317
0.000297
0.000300
0.000325
0.000332
0.000355
0.000327
0.000360
0.000345
0.000352
0.000375
0.000362
0.000347
0.000362
0.000382
0.000350
0.000375
0.000347
0.000355
0.000375
0.000360
0.000355
0.000322
0.000337
0.000340
0.000285
0.000322
0.000362
0.000317
0.000340
0.000352
0.000385
0.000365
0.000375
0.000402
0.000372
0.000372
0.000390
0.000372
0.000372
0.000342
0.000365
0.000340
0.000335
0.000355
0.000357
0.000357
0.000360
0.000322
0.000330
0.000337
0.000340
0.000315
0.000325
0.000335
0.000352
0.000315
0.000365
0.000340
0.000342
0.000370
0.000355
0.000347
0.000370
0.000365
0.000357
0.000330
0.000382
0.000335
0.000327
0.000322
0.000325
0.000335
0.000350
0.000357
0.000380
0.000370
0.000405
0.000415
0.000410
0.000397
0.000400
0.000402
0.000410
0.000400
0.000385
0.000357
0.000370
0.000327
0.000347
0.000340
0.000375
0.000352
0.000362
0.000370
0.000340
0.000330
0.000362
0.000312
0.000347
0.000342
0.000340
0.000350
0.000335
0.000330
0.000337
0.000317
0.000347
0.000345
0.000345
0.000367
0.000387
0.000372
0.000395
0.000410
0.000407
0.000372
0.000415
0.000400
0.000395
0.000395
0.000377
0.000367
0.000390
0.000380
0.000385
0.000380
0.000377
0.000377
0.000362
0.000390
0.000385
0.000347
0.000372
0.000385
0.000387
0.000365
0.000390
0.000357
0.000355
0.000345
0.000330
0.000315
0.000320
0.000357
0.000340
0.000322
0.000360
0.000372
0.000350
0.000385
0.000412
0.000390
0.000407
0.000400
0.000402
0.000385
0.000377
0.000400
0.000367
0.000355
0.000377
0.000327
0.000375
0.000372
0.000375
0.000365
0.000387
0.000405
0.000385
0.000365
0.000415
0.000370
0.000347
0.000367
0.000352
0.000347
0.000340
0.000362
0.000360
0.000327
0.000347
0.000350
0.000337
0.000325
0.000330
0.000330
0.000355
0.000357
0.000347
0.000362
0.000355
0.000370
0.000377
0.000370
0.000405
0.000385
0.000400
0.000417
0.000427
0.000397
0.000425
0.000390
0.000380
0.000375
0.000392
0.000375
0.000352
0.000362
0.000377
0.000317
0.000367
0.000340
0.000335
0.000355
0.000342
0.000365
0.000370
0.000365
0.000387
0.000377
0.000382
0.000375
0.000395
0.000382
0.000407
0.000400
0.000400
0.000430
0.000430
0.000422
0.000417
0.000420
0.000430
0.000412
0.000440
0.000415
0.000402
0.000407
0.000392
0.000402
0.000395
0.000370
0.000382
0.000362
0.000397
0.000392
0.000400
0.000382
0.000402
0.000395
0.000397
0.000395
0.000390
0.000367
0.000380
0.000350
0.000372
0.000360
0.000360
0.000392
0.000367
0.000382
0.000395
0.000387
0.000397
0.000362
0.000407
0.000392
0.000397
0.000420
0.000400
0.000382
0.000390
0.000417
0.000415
0.000422
0.000422
0.000390
0.000420
0.000395
0.000392
0.000365
0.000385
0.000377
0.000377
0.000347
0.000407
0.000400
0.000357
0.000395
0.000395
0.000402
0.000400
0.000405
0.000415
0.000387
0.000420
0.000370
0.000400
0.000380
0.000382
0.000357
0.000385
0.000375
0.000370
0.000342
0.000382
0.000392
0.000382
0.000390
0.000407
0.000402
0.000392
0.000405
0.000425
0.000402
0.000407
0.000407
0.000420
0.000405
0.000407
0.000385
0.000380
0.000390
0.000362
0.000370
0.000392
0.000375
0.000357
0.000342
0.000397
0.000380
0.000407
0.000425
0.000412
0.000387
0.000415
0.000412
0.000432
0.000392
0.000425
0.000387
0.000392
0.000390
0.000400
0.000392
0.000402
0.000412
0.000412
0.000405
0.000407
0.000405
0.000395
0.000387
0.000432
0.000390
0.000395
0.000410
0.000407
0.000402
0.000410
0.000402
0.000415
0.000412
0.000395
0.000402
0.000397
0.000340
0.000392
0.000372
0.000370
0.000385
0.000387
0.000372
0.000390
0.000365
0.000397
0.000370
0.000400
0.000380
0.000395
0.000392
0.000392
0.000387
0.000385
0.000382
0.000422
0.000380
0.000390
0.000382
0.000382
0.000382
0.000422
0.000392
0.000392
0.000400
0.000422
0.000415
0.000430
0.000432
0.000397
0.000392
0.000402
0.000377
0.000372
0.000375
0.000382
0.000342
0.000382
0.000387
0.000390
0.000375
0.000402
0.000405
0.000407
0.000407
0.000432
0.000407
0.000415
0.000402
0.000410
0.000387
0.000420
0.000400
0.000392
0.000422
0.000410
0.000372
0.000395
0.000400
0.000412
0.000375
0.000425
0.000445
0.000402
0.000430
0.000435
0.000397
0.000395
0.000397
0.000395
0.000407
0.000425
0.000407
0.000415
0.000400
0.000422
0.000400
0.000425
0.000420
0.000427
0.000422
0.000420
0.000385
0.000400
0.000390
0.000387
0.000395
0.000397
0.000400
0.000430
0.000380
0.000402
0.000397
0.000387
0.000402
0.000422
0.000432
0.000422
0.000407
0.000395
0.000405
0.000425
0.000365
0.000382
0.000387
0.000400
0.000392
0.000400
0.000400
0.000382
0.000390
0.000402
0.000385
0.000422
0.000400
0.000425
0.000392
0.000405
0.000425
0.000400
0.000385
0.000392
0.000402
0.000405
0.000417
0.000405
0.000380
0.000367
0.000370
0.000357
0.000382
0.000435
0.000395
0.000422
0.000405
0.000382
0.000390
0.000430
0.000410
0.000400
0.000402
0.000437
0.000420
0.000397
0.000432
0.000422
0.000400
0.000425
0.000380
0.000372
0.000362
0.000400
0.000390
0.000402
0.000415
0.000430
0.000397
0.000422
0.000442
0.000397
0.000382
0.000412
0.000362
0.000355
0.000372
0.000380
0.000367
0.000372
0.000417
0.000387
0.000367
0.000435
0.000397
0.000387
0.000415
0.000417
0.000395
0.000410
0.000387
0.000380
0.000365
0.000417
0.000362
0.000375
0.000405
0.000417
0.000407
0.000422
0.000440
0.000457
0.000402
0.000477
0.000442
0.000422
0.000455
0.000427
0.000407
0.000432
0.000410
0.000410
0.000407
0.000415
0.000410
0.000397
0.000415
0.000437
0.000397
0.000400
0.000407
0.000412
0.000405
0.000417
0.000412
0.000410
0.000432
0.000432
0.000430
0.000412
0.000450
0.000442
0.000432
0.000452
0.000425
0.000437
0.000432
0.000445
0.000390
0.000442
0.000402
0.000400
0.000437
0.000402
0.000390
0.000382
0.000380
0.000392
0.000392
0.000412
0.000427
0.000455
0.000422
0.000447
0.000447
0.000407
0.000412
0.000417
0.000405
0.000442
0.000440
0.000440
0.000417
0.000457
0.000420
0.000435
0.000415
0.000462
0.000395
0.000435
0.000430
0.000432
0.000377
0.000417
0.000392
0.000405
0.000420
0.000390
0.000362
0.000402
0.000397
0.000367
0.000372
0.000420
0.000390
0.000405
0.000407
0.000412
0.000400
0.000410
0.000410
0.000412
0.000407
0.000427
0.000410
0.000420
0.000415
0.000427
0.000402
0.000425
0.000442
0.000415
0.000395
0.000430
0.000437
0.000430
0.000417
0.000462
0.000410
0.000450
0.000457
0.000435
0.000440
0.000460
0.000450
0.000430
0.000412
0.000422
0.000427
0.000442
0.000442
0.000427
0.000397
0.000420
0.000425
0.000397
0.000410
0.000437
0.000372
0.000387
0.000412
0.000432
0.000375
0.000445
0.000430
0.000420
0.000435
0.000487
0.000417
0.000452
0.000450
0.000397
0.000395
0.000392
0.000397
0.000372
0.000390
0.000422
0.000405
0.000405
0.000412
0.000427
0.000400
0.000422
0.000415
0.000402
0.000427
0.000410
0.000392
0.000450
0.000457
0.000477
0.000427
0.000460
0.000475
0.000420
0.000432
0.000430
0.000400
0.000415
0.000400
0.000410
0.000382
0.000377
0.000382
0.000420
0.000437
0.000427
0.000402
0.000427
0.000437
0.000415
0.000430
0.000455
0.000462
0.000460
0.000442
0.000470
0.000430
0.000425
0.000415
0.000425
0.000405
0.000432
0.000415
0.000397
0.000437
0.000452
0.000397
0.000447
0.000445
0.000437
0.000422
0.000432
0.000442
0.000430
0.000425
0.000445
0.000420
0.000445
0.000450
0.000415
0.000407
0.000412
0.000392
0.000400
0.000407
0.000422
0.000377
0.000402
0.000445
0.000422
0.000417
0.000467
0.000452
0.000417
0.000430
0.000455
0.000407
0.000412
0.000432
0.000415
0.000410
0.000435
0.000430
0.000420
0.000460
0.000507
0.000452
0.000445
0.000452
0.000447
0.000445
0.000460
0.000452
0.000425
0.000417
0.000442
0.000410
0.000452
0.000442
0.000460
0.000430
0.000455
0.000432
0.000417
0.000402
0.000430
0.000412
0.000422
0.000437
0.000442
0.000415
0.000437
0.000432
0.000387
0.000412
0.000452
0.000412
0.000420
0.000422
0.000437
0.000405
0.000432
0.000462
0.000432
0.000457
0.000495
0.000455
0.000460
0.000447
0.000470
0.000430
0.000450
0.000455
0.000417
0.000400
0.000422
0.000427
0.000405
0.000422
0.000417
0.000420
0.000447
0.000440
0.000425
0.000427
0.000425
0.000435
0.000437
0.000450
0.000452
0.000442
0.000452
0.000462
0.000452
0.000412
0.000455
0.000417
0.000430
0.000397
0.000425
0.000387
0.000410
0.000425
0.000397
0.000415
0.000447
0.000405
0.000410
0.000430
0.000445
0.000432
0.000440
0.000415
0.000405
0.000422
0.000440
0.000422
0.000420
0.000432
0.000442
0.000395
0.000447
0.000412
0.000415
0.000415
0.000430
0.000405
0.000422
0.000402
0.000447
0.000457
0.000467
0.000462
0.000427
0.000430
0.000425
0.000437
0.000422
0.000427
0.000460
0.000402
0.000445
0.000460
0.000395
0.000417
0.000400
0.000417
0.000437
0.000437
0.000450
0.000437
0.000445
0.000435
0.000430
0.000395
0.000437
0.000382
0.000417
0.000425
0.000420
0.000385
0.000425
0.000405
0.000405
0.000425
0.000445
0.000472
0.000462
0.000450
0.000472
0.000425
0.000442
0.000430
0.000430
0.000390
0.000452
0.000430
0.000452
0.000450
0.000457
0.000440
0.000442
0.000447
0.000462
0.000447
0.000477
0.000455
0.000477
0.000460
0.000482
0.000477
0.000467
0.000475
0.000452
0.000412
0.000432
0.000430
0.000395
0.000395
0.000415
0.000407
0.000415
0.000410
0.000430
0.000440
0.000445
0.000430
0.000432
0.000432
0.000442
0.000435
0.000430
0.000437
0.000427
0.000415
0.000435
0.000442
0.000430
0.000445
0.000442
0.000435
0.000425
0.000430
0.000425
0.000430
0.000395
0.000385
0.000415
0.000402
0.000430
0.000442
0.000445
0.000455
0.000467
0.000437
0.000457
0.000480
0.000470
0.000497
0.000460
0.000455
0.000437
0.000455
0.000415
0.000430
0.000397
0.000440
0.000390
0.000425
0.000445
0.000392
0.000422
0.000415
0.000407
0.000417
0.000447
0.000430
0.000447
0.000435
0.000437
0.000417
0.000427
0.000415
0.000435
0.000412
0.000457
0.000435
0.000445
0.000442
0.000435
0.000417
0.000425
0.000432
0.000427
0.000402
0.000460
0.000395
0.000405
0.000425
0.000422
0.000410
0.000452
0.000430
0.000465
0.000437
0.000475
0.000457
0.000447
0.000437
0.000460
0.000440
0.000435
0.000432
0.000445
0.000440
0.000465
0.000460
0.000455
0.000455
0.000460
0.000455
0.000450
0.000457
0.000442
0.000427
0.000452
0.000452
0.000440
0.000435
0.000447
0.000455
0.000425
0.000432
0.000450
0.000420
0.000432
0.000415
0.000415
0.000400
0.000437
0.000435
0.000422
0.000447
0.000460
0.000435
0.000460
0.000445
0.000440
0.000450
0.000442
0.000460
0.000455
0.000450
0.000450
0.000427
0.000447
0.000437
0.000430
0.000417
0.000422
0.000410
0.000440
0.000402
0.000455
0.000425
0.000410
0.000420
0.000435
0.000412
0.000450
0.000432
0.000430
0.000417
0.000427
0.000405
0.000417
0.000427
0.000450
0.000427
0.000427
0.000442
0.000422
0.000417
0.000452
0.000460
0.000445
0.000475
0.000482
0.000440
0.000437
0.000440
0.000460
0.000432
0.000450
0.000447
0.000460
0.000437
0.000462
0.000452
0.000475
0.000457
0.000477
0.000440
0.000467
0.000450
0.000437
0.000415
0.000445
0.000437
0.000412
0.000430
0.000462
0.000432
0.000460
0.000435
0.000452
0.000440
0.000452
0.000475
0.000475
0.000435
0.000465
0.000455
0.000432
0.000432
0.000432
0.000400
0.000450
0.000425
0.000417
0.000390
0.000440
0.000410
0.000422
0.000422
0.000447
0.000420
0.000470
0.000467
0.000465
0.000450
0.000477
0.000475
0.000465
0.000437
0.000490
0.000447
0.000462
0.000460
0.000452
0.000435
0.000440
0.000430
0.000427
0.000445
0.000455
0.000432
0.000430
0.000425
0.000442
0.000407
0.000437
0.000432
0.000437
0.000457
0.000452
0.000447
0.000442
0.000430
0.000440
0.000450
0.000417
0.000470
0.000445
0.000435
0.000445
0.000447
0.000442
0.000417
0.000437
0.000425
0.000430
0.000422
0.000432
0.000465
0.000447
0.000455
0.000470
0.000457
0.000477
0.000475
0.000495
0.000477
0.000470
0.000442
0.000457
0.000435
0.000440
0.000430
0.000455
0.000447
0.000455
0.000435
0.000477
0.000452
0.000420
0.000442
0.000447
0.000485
0.000455
0.000475
0.000490
0.000427
0.000440
0.000420
0.000415
0.000435
0.000430
0.000427
0.000417
0.000442
0.000457
0.000440
0.000405
0.000415
0.000385
0.000370
0.000452
0.000422
0.000437
0.000435
0.000455
0.000460
0.000455
0.000460
0.000450
0.000460
0.000487
0.000462
0.000465
0.000440
0.000457
0.000430
0.000432
0.000447
0.000460
0.000417
0.000450
0.000462
0.000420
0.000437
0.000482
0.000455
0.000435
0.000472
0.000455
0.000440
0.000447
0.000445
0.000442
0.000425
0.000447
0.000435
0.000422
0.000460
0.000445
0.000427
0.000472
0.000482
0.000437
0.000447
0.000490
0.000440
0.000432
0.000440
0.000447
0.000405
0.000452
0.000445
0.000450
0.000427
0.000457
0.000440
0.000447
0.000442
0.000480
0.000437
0.000452
0.000490
0.000425
0.000452
0.000502
0.000442
0.000440
0.000462
0.000492
0.000482
0.000457
0.000467
0.000475
0.000445
0.000470
0.000440
0.000452
0.000422
0.000470
0.000435
0.000442
0.000455
0.000430
0.000417
0.000480
0.000435
0.000435
0.000457
0.000465
0.000440
0.000445
0.000475
0.000487
0.000450
0.000495
0.000492
0.000467
0.000460
0.000487
0.000465
0.000470
0.000485
0.000460
0.000440
0.000457
0.000417
0.000435
0.000412
0.000445
0.000425
0.000432
0.000452
0.000465
0.000465
0.000475
0.000447
0.000447
0.000440
0.000452
0.000410
0.000440
0.000445
0.000440
0.000420
0.000452
0.000440
0.000430
0.000440
0.000465
0.000430
0.000442
0.000477
0.000472
0.000435
0.000467
0.000462
0.000445
0.000460
0.000495
0.000417
0.000437
0.000455
0.000460
0.000400
0.000455
0.000425
0.000407
0.000430
0.000455
0.000397
0.000410
0.000437
0.000442
0.000430
0.000455
0.000432
0.000435
0.000420
0.000445
0.000417
0.000450
0.000465
0.000462
0.000430
0.000445
0.000445
0.000432
0.000447
0.000455
0.000410
0.000420
0.000442
0.000460
0.000435
0.000467
0.000442
0.000440
0.000425
0.000450
0.000447
0.000465
0.000482
0.000472
0.000450
0.000492
0.000475
0.000460
0.000472
0.000485
0.000455
0.000452
0.000440
0.000437
0.000425
0.000452
0.000445
0.000420
0.000427
0.000450
0.000415
0.000422
0.000470
0.000452
0.000420
0.000482
0.000475
0.000445
0.000455
0.000502
0.000470
0.000467
0.000467
0.000480
0.000460
0.000447
0.000440
0.000435
0.000435
0.000460
0.000422
0.000445
0.000452
0.000450
0.000440
0.000485
0.000470
0.000440
0.000452
0.000472
0.000442
0.000460
0.000492
0.000475
0.000447
0.000487
0.000467
0.000457
0.000447
0.000460
0.000430
0.000455
0.000452
0.000430
0.000442
0.000472
0.000475
0.000450
0.000460
0.000480
0.000472
0.000422
0.000460
0.000487
0.000432
0.000477
0.000450
0.000452
0.000450
0.000450
0.000430
0.000447
0.000467
0.000460
0.000452
0.000502
0.000467
0.000450
0.000460
0.000482
0.000472
0.000460
0.000460
0.000485
0.000427
0.000497
0.000462
0.000477
0.000460
0.000460
0.000415
0.000425
0.000445
0.000455
0.000415
0.000442
0.000460
0.000425
0.000440
0.000445
0.000457
0.000437
0.000457
0.000475
0.000425
0.000447
0.000462
0.000437
0.000435
0.000467
0.000435
0.000402
0.000452
0.000437
0.000420
0.000480
0.000480
0.000502
0.000452
0.000497
0.000467
0.000460
0.000452
0.000450
0.000397
0.000430
0.000452
0.000427
0.000437
0.000477
0.000460
0.000432
0.000455
0.000457
0.000422
0.000455
0.000477
0.000460
0.000452
0.000485
0.000457
0.000450
0.000442
0.000485
0.000452
0.000455
0.000460
0.000472
0.000425
0.000465
0.000430
0.000397
0.000460
0.000437
0.000435
0.000447
0.000477
0.000465
0.000425
0.000500
0.000485
0.000472
0.000472
0.000515
0.000465
0.000452
0.000485
0.000465
0.000457
0.000482
0.000440
0.000447
0.000472
0.000465
0.000447
0.000465
0.000462
0.000455
0.000422
0.000485
0.000480
0.000457
0.000467
0.000520
0.000477
0.000470
0.000477
0.000467
0.000455
0.000482
0.000450
0.000430
0.000450
0.000442
0.000410
0.000440
0.000477
0.000447
0.000452
0.000497
0.000485
0.000465
0.000487
0.000515
0.000485
0.000495
0.000485
0.000467
0.000425
0.000452
0.000447
0.000440
0.000465
0.000447
0.000397
0.000450
0.000440
0.000417
0.000422
0.000477
0.000435
0.000430
0.000440
0.000487
0.000435
0.000467
0.000495
0.000442
0.000427
0.000440
0.000417
0.000445
0.000415
0.000457
0.000420
0.000422
0.000465
0.000447
0.000435
0.000475
0.000455
0.000447
0.000447
0.000482
0.000442
0.000442
0.000492
0.000462
0.000452
0.000482
0.000475
0.000472
0.000467
0.000470
0.000452
0.000445
0.000445
0.000452
0.000415
0.000450
0.000465
0.000422
0.000442
0.000465
0.000402
0.000455
0.000465
0.000480
0.000437
0.000492
0.000505
0.000490
0.000490
0.000487
0.000442
0.000455
0.000455
0.000442
0.000400
0.000447
0.000435
0.000412
0.000415
0.000470
0.000405
0.000412
0.000472
0.000480
0.000432
0.000482
0.000432
0.000450
0.000450
0.000475
0.000440
0.000440
0.000460
0.000437
0.000400
0.000455
0.000460
0.000447
0.000460
0.000482
0.000452
0.000462
0.000477
0.000475
0.000460
0.000522
0.000492
0.000482
0.000485
0.000472
0.000460
0.000447
0.000445
0.000495
0.000445
0.000460
0.000447
0.000455
0.000420
0.000450
0.000392
0.000415
0.000445
0.000470
0.000445
0.000487
0.000480
0.000472
0.000437
0.000512
0.000460
0.000470
0.000475
0.000475
0.000420
0.000442
0.000445
0.000445
0.000432
0.000485
0.000450
0.000460
0.000485
0.000485
0.000457
0.000452
0.000482
0.000480
0.000465
0.000490
0.000487
0.000445
0.000472
0.000477
0.000420
0.000430
0.000447
0.000450
0.000435
0.000480
0.000445
0.000422
0.000465
0.000435
0.000425
0.000442
0.000435
0.000422
0.000415
0.000417
0.000412
0.000415
0.000442
0.000437
0.000430
0.000475
0.000472
0.000467
0.000462
0.000490
0.000460
0.000455
0.000465
0.000460
0.000450
0.000477
0.000450
0.000445
0.000445
0.000462
0.000437
0.000462
0.000460
0.000445
0.000430
0.000480
0.000465
0.000475
0.000462
0.000510
0.000477
0.000465
0.000460
0.000477
0.000442
0.000477
0.000470
0.000437
0.000432
0.000467
0.000420
0.000460
0.000470
0.000490
0.000452
0.000510
0.000495
0.000480
0.000507
0.000497
0.000480
0.000472
0.000475
0.000450
0.000417
0.000462
0.000425
0.000435
0.000462
0.000475
0.000455
0.000470
0.000495
0.000520
0.000460
0.000487
0.000495
0.000457
0.000457
0.000492
0.000470
0.000462
0.000485
0.000487
0.000435
0.000457
0.000455
0.000467
0.000470
0.000500
0.000490
0.000470
0.000470
0.000487
0.000462
0.000487
0.000457
0.000437
0.000412
0.000467
0.000447
0.000450
0.000452
0.000470
0.000455
0.000472
0.000470
0.000482
0.000472
0.000452
0.000457
0.000485
0.000432
0.000460
0.000430
0.000472
0.000470
0.000447
0.000437
0.000467
0.000447
0.000407
0.000462
0.000487
0.000450
0.000460
0.000450
0.000490
0.000460
0.000467
0.000472
0.000457
0.000477
0.000482
0.000447
0.000470
0.000467
0.000477
0.000467
0.000497
0.000477
0.000432
0.000452
0.000485
0.000437
0.000430
0.000472
0.000457
0.000452
0.000492
0.000445
0.000525
0.000480
0.000482
0.000480
0.000475
0.000485
0.000480
0.000465
0.000480
0.000495
0.000480
0.000455
0.000495
0.000447
0.000437
0.000467
0.000445
0.000467
0.000472
0.000457
0.000460
0.000457
0.000470
0.000470
0.000485
0.000475
0.000492
0.000452
0.000482
0.000495
0.000462
0.000460
0.000517
0.000465
0.000450
0.000447
0.000435
0.000415
0.000427
0.000425
0.000420
0.000400
0.000435
0.000425
0.000440
0.000450
0.000417
0.000425
0.000447
0.000450
0.000450
0.000455
0.000475
0.000445
0.000460
0.000487
0.000480
0.000447
0.000475
0.000467
0.000490
0.000455
0.000465
0.000447
0.000450
0.000440
0.000432
0.000437
0.000450
0.000467
0.000440
0.000457
0.000462
0.000460
0.000440
0.000460
0.000485
0.000465
0.000475
0.000477
0.000467
0.000467
0.000452
0.000437
0.000485
0.000457
0.000467
0.000435
0.000467
0.000470
0.000470
0.000447
0.000477
0.000477
0.000482
0.000472
0.000492
0.000480
0.000482
0.000487
0.000507
0.000465
0.000477
0.000435
0.000490
0.000467
0.000460
0.000457
0.000467
0.000457
0.000445
0.000482
0.000472
0.000460
0.000455
0.000467
0.000475
0.000472
0.000467
0.000477
0.000475
0.000472
0.000450
0.000465
0.000465
0.000465
0.000497
0.000482
0.000500
0.000485
0.000465
0.000455
0.000510
0.000482
0.000485
0.000457
0.000465
0.000467
0.000482
0.000475
0.000472
0.000442
0.000465
0.000472
0.000482
0.000437
0.000482
0.000447
0.000477
0.000455
0.000460
0.000465
0.000462
0.000442
0.000467
0.000455
0.000450
0.000435
0.000480
0.000450
0.000450
0.000462
0.000477
0.000437
0.000452
0.000452
0.000465
0.000450
0.000485
0.000460
0.000475
0.000465
0.000482
0.000467
0.000460
0.000460
0.000457
0.000470
0.000450
0.000460
0.000462
0.000452
0.000442
0.000445
0.000442
0.000452
0.000455
0.000452
0.000457
0.000442
0.000440
0.000457
0.000462
0.000452
0.000475
0.000465
0.000485
0.000467
0.000492
0.000470
0.000490
0.000475
0.000480
0.000460
0.000475
0.000465
0.000457
0.000432
0.000435
0.000460
0.000465
0.000452
0.000472
0.000490
0.000455
0.000465
0.000467
0.000462
0.000472
0.000470
0.000467
0.000470
0.000482
0.000455
0.000445
0.000450
0.000475
0.000462
0.000495
0.000477
0.000462
0.000457
0.000467
0.000465
0.000467
0.000430
0.000472
0.000470
0.000480
0.000467
0.000487
0.000467
0.000487
0.000500
0.000477
0.000455
0.000472
0.000450
0.000465
0.000462
0.000460
0.000447
0.000472
0.000447
0.000470
0.000462
0.000470
0.000445
0.000470
0.000445
0.000467
0.000457
0.000450
0.000447
0.000462
0.000452
0.000457
0.000430
0.000420
0.000435
0.000442
0.000447
0.000475
0.000437
0.000465
0.000437
0.000445
0.000437
0.000440
0.000412
0.000465
0.000467
0.000457
0.000472
0.000475
0.000460
0.000482
0.000490
0.000492
0.000482
0.000487
0.000475
0.000452
0.000442
0.000475
0.000440
0.000482
0.000482
0.000467
0.000435
0.000472
0.000445
0.000442
0.000425
0.000472
0.000435
0.000480
0.000460
0.000472
0.000475
0.000495
0.000487
0.000485
0.000485
0.000505
0.000492
0.000480
0.000487
0.000475
0.000467
0.000455
0.000480
0.000465
0.000467
0.000457
0.000470
0.000470
0.000470
0.000482
0.000485
0.000482
0.000462
0.000467
0.000480
0.000470
0.000465
0.000467
0.000470
0.000472
0.000450
0.000482
0.000465
0.000462
0.000477
0.000470
0.000452
0.000462
0.000445
0.000480
0.000452
0.000457
0.000455
0.000460
0.000487
0.000477
0.000457
0.000487
0.000472
0.000505
0.000475
0.000482
0.000495
0.000495
0.000445
0.000500
0.000465
0.000442
0.000457
0.000495
0.000460
0.000475
0.000490
0.000477
0.000455
0.000485
0.000475
0.000485
0.000477
0.000467
0.000467
0.000472
0.000470
0.000482
0.000440
0.000472
0.000482
0.000450
0.000447
0.000480
0.000472
0.000462
0.000465
0.000475
0.000435
0.000450
0.000447
0.000460
0.000440
0.000467
0.000472
0.000492
0.000475
0.000495
0.000472
0.000492
0.000482
0.000487
0.000492
0.000500
0.000472
0.000520
0.000490
0.000472
0.000410
0.000430
0.000427
0.000452
0.000445
0.000452
0.000460
0.000445
0.000475
0.000495
0.000455
0.000472
0.000482
0.000472
0.000492
0.000502
0.000470
0.000467
0.000462
0.000472
0.000462
0.000467
0.000470
0.000485
0.000490
0.000480
0.000485
0.000452
0.000440
0.000465
0.000420
0.000477
0.000470
0.000477
0.000457
0.000465
0.000470
0.000457
0.000480
0.000475
0.000477
0.000507
0.000495
0.000512
0.000482
0.000475
0.000495
0.000455
0.000475
0.000482
0.000460
0.000500
0.000457
0.000495
0.000485
0.000492
0.000475
0.000470
0.000480
0.000517
0.000502
0.000490
0.000482
0.000500
0.000477
0.000475
0.000485
0.000477
0.000480
0.000490
0.000440
0.000475
0.000460
0.000450
0.000455
0.000455
0.000457
0.000472
0.000470
0.000460
0.000475
0.000487
0.000475
0.000472
0.000492
0.000512
0.000477
0.000490
0.000450
0.000487
0.000480
0.000490
0.000490
0.000500
0.000477
0.000490
0.000470
0.000472
0.000480
0.000460
0.000467
0.000497
0.000487
0.000485
0.000487
0.000502
0.000472
0.000470
0.000440
0.000432
0.000422
0.000450
0.000442
0.000442
0.000455
0.000485
0.000487
0.000490
0.000485
0.000485
0.000480
0.000512
0.000507
0.000467
0.000442
0.000467
0.000440
0.000430
0.000427
0.000435
0.000435
0.000462
0.000470
0.000470
0.000480
0.000507
0.000477
0.000505
0.000507
0.000490
0.000462
0.000510
0.000487
0.000467
0.000467
0.000500
0.000485
0.000490
0.000470
0.000500
0.000445
0.000487
0.000480
0.000467
0.000460
0.000492
0.000480
0.000480
0.000485
0.000507
0.000467
0.000515
0.000505
0.000472
0.000477
0.000480
0.000485
0.000480
0.000497
0.000482
0.000480
0.000490
0.000480
0.000485
0.000485
0.000472
0.000465
0.000490
0.000480
0.000500
0.000490
0.000505
0.000475
0.000485
0.000480
0.000497
0.000455
0.000482
0.000480
0.000490
0.000457
0.000460
0.000457
0.000445
0.000450
0.000472
0.000462
0.000445
0.000442
0.000495
0.000467
0.000472
0.000470
0.000497
0.000467
0.000470
0.000467
0.000447
0.000477
0.000465
0.000455
0.000450
0.000452
0.000492
0.000480
0.000480
0.000500
0.000472
0.000455
0.000517
0.000450
0.000452
0.000437
0.000482
0.000477
0.000472
0.000447
0.000477
0.000452
0.000475
0.000480
0.000450
0.000440
0.000440
0.000445
0.000457
0.000442
0.000440
0.000435
0.000462
0.000440
0.000462
0.000472
0.000480
0.000472
0.000472
0.000480
0.000515
0.000482
0.000470
0.000490
0.000482
0.000477
0.000477
0.000455
0.000495
0.000472
0.000487
0.000455
0.000490
0.000457
0.000480
0.000452
0.000472
0.000470
0.000437
0.000445
0.000470
0.000432
0.000482
0.000470
0.000467
0.000450
0.000490
0.000492
0.000477
0.000475
0.000485
0.000472
0.000487
0.000465
0.000495
0.000447
0.000477
0.000457
0.000455
0.000452
0.000460
0.000447
0.000480
0.000460
0.000462
0.000452
0.000467
0.000450
0.000477
0.000470
0.000487
0.000462
0.000472
0.000497
0.000480
0.000467
0.000482
0.000485
0.000477
0.000482
0.000492
0.000460
0.000480
0.000470
0.000470
0.000450
0.000485
0.000485
0.000467
0.000490
0.000482
0.000462
0.000480
0.000462
0.000472
0.000447
0.000447
0.000460
0.000470
0.000475
0.000482
0.000467
0.000477
0.000487
0.000475
0.000472
0.000495
0.000455
0.000490
0.000465
0.000475
0.000472
0.000452
0.000490
0.000485
0.000442
0.000475
0.000457
0.000470
0.000470
0.000472
0.000452
0.000465
0.000455
0.000470
0.000457
0.000472
0.000430
0.000482
0.000460
0.000437
0.000445
0.000480
0.000462
0.000495
0.000480
0.000502
0.000512
0.000487
0.000490
0.000497
0.000467
0.000515
0.000460
0.000490
0.000470
0.000457
0.000452
0.000460
0.000475
0.000457
0.000482
0.000495
0.000480
0.000465
0.000472
0.000487
0.000485
0.000460
0.000475
0.000492
0.000457
0.000485
0.000512
0.000460
0.000477
0.000497
0.000460
0.000437
0.000475
0.000467
0.000450
0.000475
0.000470
0.000460
0.000450
0.000480
0.000467
0.000475
0.000465
0.000477
0.000462
0.000505
0.000470
0.000477
0.000462
0.000500
0.000485
0.000467
0.000485
0.000472
0.000462
0.000485
0.000462
0.000487
0.000505
0.000510
0.000472
0.000490
0.000462
0.000472
0.000445
0.000457
0.000445
0.000447
0.000455
0.000477
0.000432
0.000430
0.000460
0.000460
0.000475
0.000467
0.000482
0.000462
0.000470
0.000500
0.000482
0.000460
0.000487
0.000485
0.000455
0.000500
0.000517
0.000497
0.000477
0.000492
0.000457
0.000452
0.000465
0.000475
0.000465
0.000435
0.000482
0.000465
0.000470
0.000475
0.000482
0.000465
0.000487
0.000505
0.000485
0.000482
0.000477
0.000485
0.000472
0.000490
0.000495
0.000430
0.000497
0.000475
0.000475
0.000472
0.000507
0.000500
0.000482
0.000500
0.000465
0.000490
0.000487
0.000495
0.000472
0.000470
0.000490
0.000495
0.000487
0.000492
0.000480
0.000495
0.000457
0.000485
0.000457
0.000450
0.000470
0.000467
0.000470
0.000475
0.000475
0.000487
0.000487
0.000515
0.000475
0.000495
0.000477
0.000475
0.000452
0.000475
0.000460
0.000462
0.000485
0.000447
0.000472
0.000492
0.000490
0.000497
0.000482
0.000487
0.000505
0.000490
0.000487
0.000497
0.000467
0.000485
0.000490
0.000490
0.000450
0.000450
0.000472
0.000435
0.000437
0.000467
0.000470
0.000455
0.000450
0.000465
0.000447
0.000477
0.000485
0.000462
0.000462
0.000512
0.000480
0.000475
0.000492
0.000482
0.000440
0.000452
0.000455
0.000432
0.000457
0.000452
0.000452
0.000467
0.000472
0.000490
0.000452
0.000475
0.000485
0.000452
0.000477
0.000515
0.000495
0.000487
0.000485
0.000495
0.000462
0.000485
0.000505
0.000502
0.000507
0.000510
0.000470
0.000482
0.000505
0.000472
0.000475
0.000485
0.000485
0.000495
0.000472
0.000482
0.000460
0.000432
0.000492
0.000470
0.000480
0.000505
0.000505
0.000475
0.000475
0.000492
0.000455
0.000495
0.000505
0.000482
0.000457
0.000460
0.000465
0.000440
0.000447
0.000495
0.000447
0.000470
0.000482
0.000485
0.000475
0.000487
0.000497
0.000450
0.000455
0.000517
0.000480
0.000482
0.000507
0.000517
0.000487
0.000497
0.000485
0.000460
0.000472
0.000482
0.000470
0.000485
0.000485
0.000490
0.000482
0.000445
0.000472
0.000472
0.000460
0.000492
0.000472
0.000497
0.000465
0.000490
0.000430
0.000480
0.000477
0.000475
0.000455
0.000507
0.000455
0.000460
0.000482
0.000500
0.000442
0.000477
0.000487
0.000467
0.000475
0.000485
0.000472
0.000465
0.000462
0.000470
0.000440
0.000465
0.000490
0.000465
0.000465
0.000492
0.000480
0.000452
0.000472
0.000487
0.000462
0.000485
0.000485
0.000475
0.000472
0.000517
0.000470
0.000492
0.000512
0.000482
0.000447
0.000472
0.000475
0.000472
0.000432
0.000472
0.000475
0.000472
0.000492
0.000477
0.000450
0.000480
0.000487
0.000507
0.000487
0.000505
0.000452
0.000467
0.000460
0.000487
0.000420
0.000432
0.000470
0.000437
0.000437
0.000470
0.000452
0.000460
0.000492
0.000507
0.000492
0.000485
0.000497
0.000495
0.000485
0.000497
0.000472
0.000470
0.000480
0.000490
0.000452
0.000472
0.000475
0.000502
0.000455
0.000522
0.000495
0.000487
0.000502
0.000497
0.000462
0.000467
0.000477
0.000492
0.000440
0.000472
0.000467
0.000462
0.000457
0.000470
0.000460
0.000475
0.000472
0.000495
0.000470
0.000522
0.000500
0.000500
0.000487
0.000540
0.000487
0.000482
0.000507
0.000492
0.000470
0.000495
0.000475
0.000487
0.000477
0.000472
0.000475
0.000472
0.000485
0.000482
0.000457
0.000515
0.000490
0.000487
0.000492
0.000510
0.000492
0.000485
0.000490
0.000525
0.000492
0.000515
0.000460
0.000492
0.000490
0.000487
0.000485
0.000460
0.000487
0.000457
0.000435
0.000467
0.000455
0.000445
0.000445
0.000472
0.000480
0.000497
0.000477
0.000477
0.000472
0.000485
0.000492
0.000487
0.000460
0.000490
0.000482
0.000455
0.000465
0.000445
0.000430
0.000470
0.000440
0.000457
0.000465
0.000500
0.000467
0.000480
0.000467
0.000462
0.000465
0.000485
0.000465
0.000470
0.000457
0.000450
0.000435
0.000445
0.000460
0.000467
0.000450
0.000497
0.000462
0.000467
0.000485
0.000470
0.000472
0.000475
0.000480
0.000485
0.000477
0.000490
0.000480
0.000482
0.000475
0.000500
0.000460
0.000465
0.000487
0.000450
0.000450
0.000490
0.000467
0.000470
0.000465
0.000487
0.000452
0.000455
0.000485
0.000487
0.000465
0.000490
0.000477
0.000487
0.000507
0.000497
0.000472
0.000492
0.000517
0.000480
0.000472
0.000512
0.000470
0.000482
0.000490
0.000495
0.000485
0.000477
0.000505
0.000522
0.000470
0.000505
0.000480
0.000450
0.000477
0.000487
0.000447
0.000475
0.000467
0.000470
0.000460
0.000500
0.000510
0.000487
0.000490
0.000477
0.000435
0.000480
0.000482
0.000485
0.000472
0.000487
0.000480
0.000467
0.000467
0.000505
0.000455
0.000455
0.000482
0.000465
0.000472
0.000472
0.000490
0.000457
0.000487
0.000510
0.000482
0.000495
0.000492
0.000520
0.000462
0.000502
0.000495
0.000465
0.000490
0.000487
0.000490
0.000480
0.000495
0.000495
0.000450
0.000487
0.000485
0.000467
0.000510
0.000505
0.000510
0.000492
0.000497
0.000512
0.000470
0.000472
0.000502
0.000480
0.000460
0.000487
0.000480
0.000477
0.000485
0.000497
0.000480
0.000472
0.000490
0.000490
0.000480
0.000515
0.000452
0.000470
0.000502
0.000485
0.000467
0.000490
0.000482
0.000480
0.000462
0.000475
0.000455
0.000455
0.000487
0.000485
0.000477
0.000485
0.000465
0.000495
0.000465
0.000510
0.000467
0.000437
0.000482
0.000482
0.000450
0.000495
0.000472
0.000482
0.000467
0.000522
0.000490
0.000477
0.000500
0.000507
0.000482
0.000515
0.000485
0.000482
0.000500
0.000500
0.000462
0.000465
0.000422
0.000440
0.000437
0.000447
0.000460
0.000455
0.000457
0.000467
0.000470
0.000460
0.000487
0.000460
0.000447
0.000490
0.000492
0.000467
0.000475
0.000480
0.000467
0.000485
0.000495
0.000470
0.000500
0.000490
0.000500
0.000515
0.000467
0.000475
0.000477
0.000485
0.000495
t0(sec) = 0.000000E+0
dt(sec) = 4.000000E-10
F4:INSP "
DESCRIPTOR_NAME    : WAVEDESC           
TEMPLATE_NAME      : LECROY_2_3         
COMM_TYPE          : word               
COMM_ORDER         : HIFIRST            
WAVE_DESCRIPTOR    : 346                
USER_TEXT          : 0                  
RES_DESC1          : 0                  
TRIGTIME_ARRAY     : 0                  
RIS_TIME_ARRAY     : 0                  
RES_ARRAY1         : 0                  
WAVE_ARRAY_1       : 9932               
WAVE_ARRAY_2       : 0                  
RES_ARRAY2         : 0                  
RES_ARRAY3         : 0                  
INSTRUMENT_NAME    : LECROYHDO6104      
INSTRUMENT_NUMBER  : 6308               
TRACE_LABEL        :                    
RESERVED1          : 4966               
RESERVED2          : 0                  
WAVE_ARRAY_COUNT   : 4966               
PNTS_PER_SCREEN    : 5000               
FIRST_VALID_PNT    : 0                  
LAST_VALID_PNT     : 4965               
FIRST_POINT        : 0                  
SPARSING_FACTOR    : 1                  
SEGMENT_INDEX      : 0                  
SUBARRAY_COUNT     : 1                  
SWEEPS_PER_ACQ     : 200                
POINTS_PER_PAIR    : 0                  
PAIR_OFFSET        : 0                  
VERTICAL_GAIN      : 3.3735e-006        
VERTICAL_OFFSET    : 8.5500e-002        
MAX_VALUE          : 2.5672e+004        
MIN_VALUE          : 1.4071e+004        
NOMINAL_BITS       : 16                 
NOM_SUBARRAY_COUNT : 1                  
HORIZ_INTERVAL     : 4.0000e-010        
HORIZ_OFFSET       : -2.00000000e-007   
PIXEL_OFFSET       : -2.14000000e-007   
VERTUNIT           : Unit Name = V
HORUNIT            : Unit Name = S
HORIZ_UNCERTAINTY  : 1.0000e-012        
TRIGGER_TIME       : Date = APR 17, 2024, Time = 19:35:41.450611058
ACQ_DURATION       : 9.9988e+000        
RECORD_TYPE        : single_sweep       
PROCESSING_DONE    : no_processing      
RESERVED5          : 0                  
RIS_SWEEPS         : 1                  
TIMEBASE           : 200_ns/div         
VERT_COUPLING      : DC_50_Ohms         
PROBE_ATT          : 1.0000e+000        
FIXED_VERT_GAIN    : 5_mV/div           
BANDWIDTH_LIMIT    : off                
VERTICAL_VERNIER   : 1.0000e+000        
ACQ_VERT_OFFSET    : 0.0000e+000        
WAVE_SOURCE        : UNKNOWN            
"
0.000587
0.000590
0.000563
0.000577
0.000590
0.000597
0.000594
0.000587
0.000577
0.000590
0.000597
0.000557
0.000560
0.000540
0.000533
0.000499
0.000472
0.000533
0.000550
0.000567
0.000573
0.000631
0.000614
0.000587
0.000611
0.000577
0.000557
0.000584
0.000560
0.000604
0.000567
0.000624
0.000563
0.000587
0.000594
0.000573
0.000516
0.000503
0.000553
0.000557
0.000560
0.000573
0.000590
0.000604
0.000563
0.000587
0.000584
0.000550
0.000543
0.000594
0.000600
0.000600
0.000604
0.000611
0.000617
0.000587
0.000567
0.000580
0.000594
0.000584
0.000580
0.000587
0.000550
0.000590
0.000594
0.000570
0.000573
0.000580
0.000567
0.000546
0.000611
0.000611
0.000600
0.000590
0.000597
0.000631
0.000597
0.000577
0.000600
0.000597
0.000567
0.000604
0.000597
0.000597
0.000597
0.000587
0.000573
0.000621
0.000597
0.000604
0.000580
0.000533
0.000533
0.000594
0.000587
0.000584
0.000567
0.000560
0.000584
0.000509
0.000519
0.000584
0.000567
0.000560
0.000584
0.000621
0.000533
0.000523
0.000546
0.000590
0.000580
0.000519
0.000543
0.000573
0.000577
0.000587
0.000604
0.000624
0.000611
0.000584
0.000627
0.000611
0.000557
0.000560
0.000584
0.000611
0.000590
0.000584
0.000597
0.000577
0.000590
0.000594
0.000584
0.000624
0.000617
0.000597
0.000604
0.000607
0.000604
0.000570
0.000519
0.000560
0.000563
0.000584
0.000611
0.000611
0.000590
0.000600
0.000631
0.000607
0.000584
0.000611
0.000560
0.000584
0.000590
0.000570
0.000570
0.000580
0.000557
0.000577
0.000587
0.000600
0.000570
0.000580
0.000617
0.000627
0.000597
0.000597
0.000587
0.000550
0.000499
0.000563
0.000604
0.000536
0.000560
0.000553
0.000577
0.000563
0.000597
0.000607
0.000600
0.000580
0.000590
0.000600
0.000567
0.000540
0.000492
0.000536
0.000550
0.000523
0.000536
0.000600
0.000567
0.000577
0.000597
0.000577
0.000587
0.000594
0.000573
0.000573
0.000570
0.000550
0.000570
0.000543
0.000570
0.000597
0.000573
0.000567
0.000573
0.000573
0.000584
0.000607
0.000584
0.000587
0.000594
0.000540
0.000523
0.000519
0.000536
0.000553
0.000557
0.000590
0.000563
0.000604
0.000580
0.000590
0.000604
0.000604
0.000617
0.000580
0.000590
0.000607
0.000577
0.000607
0.000611
0.000600
0.000597
0.000594
0.000617
0.000587
0.000600
0.000600
0.000590
0.000621
0.000563
0.000563
0.000540
0.000577
0.000550
0.000553
0.000573
0.000590
0.000563
0.000587
0.000584
0.000563
0.000560
0.000550
0.000543
0.000560
0.000594
0.000611
0.000614
0.000611
0.000627
0.000617
0.000611
0.000600
0.000587
0.000600
0.000597
0.000607
0.000584
0.000638
0.000597
0.000584
0.000607
0.000590
0.000617
0.000611
0.000631
0.000611
0.000570
0.000590
0.000587
0.000597
0.000557
0.000614
0.000590
0.000563
0.000577
0.000563
0.000557
0.000584
0.000590
0.000580
0.000584
0.000573
0.000570
0.000540
0.000546
0.000509
0.000523
0.000587
0.000607
0.000590
0.000563
0.000594
0.000584
0.000580
0.000584
0.000587
0.000584
0.000614
0.000567
0.000499
0.000533
0.000536
0.000577
0.000580
0.000597
0.000624
0.000560
0.000560
0.000594
0.000553
0.000530
0.000533
0.000519
0.000526
0.000557
0.000557
0.000597
0.000590
0.000573
0.000617
0.000597
0.000597
0.000584
0.000607
0.000590
0.000573
0.000604
0.000617
0.000604
0.000594
0.000570
0.000567
0.000567
0.000563
0.000570
0.000600
0.000577
0.000570
0.000543
0.000567
0.000573
0.000587
0.000600
0.000573
0.000611
0.000614
0.000621
0.000590
0.000604
0.000600
0.000590
0.000611
0.000577
0.000563
0.000590
0.000600
0.000590
0.000590
0.000600
0.000600
0.000584
0.000590
0.000600
0.000604
0.000594
0.000597
0.000600
0.000611
0.000594
0.000587
0.000570
0.000577
0.000513
0.000553
0.000550
0.000567
0.000594
0.000580
0.000587
0.000580
0.000587
0.000570
0.000553
0.000570
0.000590
0.000584
0.000594
0.000580
0.000604
0.000621
0.000594
0.000614
0.000597
0.000597
0.000634
0.000580
0.000580
0.000573
0.000590
0.000604
0.000621
0.000614
0.000617
0.000594
0.000651
0.000584
0.000563
0.000560
0.000533
0.000519
0.000523
0.000567
0.000621
0.000648
0.000698
0.000658
0.000644
0.000597
0.000557
0.000533
0.000540
0.000573
0.000563
0.000553
0.000526
0.000560
0.000530
0.000536
0.000584
0.000617
0.000617
0.000665
0.000665
0.000631
0.000621
0.000648
0.000611
0.000584
0.000580
0.000546
0.000543
0.000553
0.000580
0.000607
0.000624
0.000638
0.000614
0.000543
0.000476
0.000422
0.000435
0.000486
0.000486
0.000479
0.000553
0.000641
0.000627
0.000634
0.000708
0.000749
0.000692
0.000681
0.000563
0.000496
0.000412
0.000418
0.000459
0.000492
0.000563
0.000611
0.000573
0.000600
0.000624
0.000675
0.000725
0.000776
0.000745
0.000685
0.000594
0.000516
0.000412
0.000354
0.000364
0.000304
0.000310
0.000341
0.000378
0.000455
0.000550
0.000678
0.000793
0.000833
0.000833
0.000776
0.000675
0.000600
0.000560
0.000570
0.000526
0.000479
0.000401
0.000263
0.000314
0.000368
0.000509
0.000668
0.000850
0.000931
0.000934
0.000813
0.000702
0.000563
0.000557
0.000563
0.000540
0.000503
0.000465
0.000418
0.000476
0.000496
0.000634
0.000712
0.000749
0.000772
0.000739
0.000702
0.000698
0.000695
0.000651
0.000590
0.000428
0.000152
-0.000321
-0.001360
-0.003228
-0.006157
-0.011281
-0.020241
-0.030378
-0.038066
-0.044928
-0.050700
-0.054316
-0.057271
-0.059919
-0.061485
-0.062504
-0.063553
-0.064571
-0.064750
-0.064372
-0.064494
-0.064700
-0.064241
-0.063472
-0.063290
-0.063212
-0.062379
-0.061505
-0.061296
-0.060847
-0.060007
-0.059326
-0.058901
-0.058459
-0.058057
-0.057727
-0.057197
-0.056732
-0.056306
-0.055666
-0.055035
-0.054508
-0.054340
-0.053935
-0.053017
-0.051921
-0.051240
-0.051078
-0.051304
-0.050922
-0.050062
-0.049833
-0.050042
-0.049809
-0.048989
-0.047836
-0.047492
-0.047198
-0.046763
-0.046449
-0.046459
-0.046021
-0.045825
-0.044951
-0.043551
-0.042914
-0.043632
-0.044095
-0.044135
-0.043666
-0.042897
-0.042583
-0.042209
-0.041713
-0.041507
-0.041392
-0.041018
-0.040593
-0.040232
-0.040552
-0.041143
-0.041025
-0.039827
-0.038596
-0.039105
-0.039891
-0.039463
-0.038802
-0.038646
-0.038225
-0.037587
-0.037182
-0.035985
-0.034187
-0.033269
-0.032949
-0.032341
-0.031771
-0.031825
-0.032939
-0.033458
-0.034268
-0.034008
-0.033080
-0.032237
-0.032308
-0.032314
-0.031549
-0.031488
-0.032581
-0.032638
-0.030887
-0.028931
-0.028162
-0.027754
-0.027258
-0.027244
-0.027905
-0.028303
-0.028314
-0.028344
-0.028951
-0.028820
-0.026941
-0.025018
-0.024994
-0.025348
-0.024981
-0.025392
-0.026411
-0.025773
-0.024508
-0.024498
-0.025163
-0.024701
-0.023678
-0.023041
-0.022791
-0.023091
-0.024805
-0.026138
-0.025196
-0.023962
-0.023604
-0.022626
-0.021303
-0.021381
-0.022005
-0.021212
-0.020548
-0.021462
-0.021671
-0.020642
-0.020312
-0.020669
-0.020180
-0.019404
-0.019691
-0.020015
-0.019478
-0.019424
-0.020109
-0.019701
-0.018507
-0.018396
-0.018709
-0.018706
-0.018517
-0.018915
-0.019084
-0.018321
-0.017633
-0.017525
-0.016584
-0.015612
-0.015643
-0.015538
-0.015302
-0.015579
-0.015963
-0.016007
-0.015710
-0.015289
-0.015393
-0.015744
-0.015677
-0.014951
-0.014277
-0.014452
-0.014783
-0.014297
-0.014027
-0.014158
-0.013696
-0.013140
-0.013271
-0.013457
-0.012978
-0.012694
-0.013025
-0.013433
-0.013656
-0.013956
-0.013744
-0.012893
-0.012313
-0.011949
-0.011561
-0.011618
-0.012360
-0.012738
-0.012198
-0.011605
-0.011844
-0.011878
-0.011089
-0.010731
-0.011254
-0.011328
-0.011011
-0.011453
-0.011989
-0.011804
-0.011537
-0.011709
-0.011477
-0.011052
-0.011234
-0.011466
-0.011352
-0.011375
-0.011746
-0.011537
-0.010711
-0.010340
-0.010390
-0.010063
-0.009915
-0.010174
-0.009935
-0.009152
-0.008916
-0.009486
-0.009604
-0.009355
-0.009321
-0.009439
-0.009544
-0.009736
-0.009638
-0.009419
-0.009716
-0.009884
-0.009186
-0.008376
-0.008110
-0.007901
-0.007550
-0.007627
-0.007823
-0.007880
-0.008137
-0.008717
-0.008734
-0.008009
-0.007621
-0.007729
-0.007840
-0.007941
-0.008380
-0.008424
-0.007870
-0.007648
-0.007705
-0.007253
-0.006592
-0.006798
-0.007290
-0.007371
-0.007570
-0.007826
-0.007287
-0.006528
-0.006538
-0.006899
-0.007172
-0.007283
-0.007229
-0.006902
-0.006926
-0.007597
-0.008167
-0.008103
-0.007887
-0.007648
-0.007239
-0.006902
-0.006983
-0.007091
-0.006966
-0.006936
-0.006929
-0.006733
-0.006649
-0.006929
-0.007013
-0.006936
-0.007091
-0.007408
-0.007236
-0.006821
-0.006464
-0.006352
-0.006538
-0.006642
-0.006369
-0.005900
-0.005640
-0.005691
-0.006045
-0.006389
-0.006265
-0.005826
-0.005752
-0.005613
-0.005199
-0.005468
-0.005897
-0.005249
-0.004490
-0.004989
-0.005286
-0.004730
-0.004534
-0.004979
-0.004804
-0.004008
-0.004068
-0.004763
-0.004777
-0.004284
-0.004433
-0.004612
-0.004416
-0.004632
-0.005465
-0.005769
-0.005360
-0.005462
-0.005664
-0.005226
-0.005151
-0.005968
-0.006022
-0.005269
-0.005269
-0.005671
-0.004858
-0.004001
-0.004348
-0.004632
-0.004126
-0.003832
-0.004426
-0.004571
-0.003923
-0.003654
-0.004119
-0.004011
-0.003451
-0.003654
-0.004045
-0.003799
-0.003664
-0.004220
-0.004564
-0.004193
-0.003964
-0.004328
-0.004281
-0.003822
-0.003684
-0.003799
-0.003876
-0.004065
-0.004473
-0.004875
-0.004993
-0.004682
-0.004278
-0.004052
-0.003896
-0.003613
-0.003546
-0.003718
-0.003650
-0.003485
-0.003670
-0.004038
-0.004028
-0.003657
-0.003485
-0.003326
-0.002996
-0.003161
-0.003495
-0.003431
-0.003343
-0.003451
-0.003320
-0.003100
-0.003060
-0.003174
-0.002837
-0.002591
-0.002915
-0.003147
-0.003333
-0.003576
-0.003667
-0.003569
-0.003508
-0.003303
-0.003063
-0.003053
-0.003201
-0.003252
-0.003154
-0.003289
-0.003245
-0.002716
-0.002372
-0.002507
-0.002577
-0.002493
-0.002702
-0.003151
-0.003401
-0.003309
-0.003370
-0.003427
-0.003083
-0.002652
-0.002608
-0.002743
-0.002695
-0.002402
-0.002318
-0.002729
-0.002911
-0.002601
-0.002355
-0.002483
-0.002648
-0.002665
-0.002655
-0.002935
-0.003023
-0.002611
-0.002527
-0.002894
-0.002824
-0.002436
-0.002503
-0.002800
-0.002901
-0.003026
-0.003374
-0.003542
-0.002986
-0.002476
-0.002527
-0.002675
-0.002679
-0.002810
-0.003013
-0.002999
-0.002699
-0.002334
-0.002297
-0.002149
-0.001640
-0.001349
-0.001619
-0.002186
-0.002341
-0.002243
-0.002378
-0.002260
-0.001879
-0.002038
-0.002365
-0.002108
-0.002071
-0.002554
-0.002851
-0.002567
-0.002203
-0.002051
-0.001899
-0.001815
-0.001876
-0.001818
-0.001751
-0.001930
-0.002250
-0.002446
-0.002469
-0.002503
-0.002378
-0.001936
-0.001822
-0.002179
-0.002287
-0.002004
-0.001987
-0.002179
-0.002071
-0.001872
-0.001916
-0.002179
-0.002213
-0.002058
-0.001957
-0.001997
-0.001916
-0.001926
-0.002193
-0.002264
-0.001967
-0.001751
-0.001808
-0.001906
-0.001869
-0.001882
-0.001977
-0.002041
-0.001967
-0.001933
-0.001980
-0.001909
-0.002004
-0.002213
-0.002139
-0.001950
-0.001926
-0.001984
-0.001828
-0.001667
-0.001687
-0.001893
-0.001899
-0.001825
-0.001828
-0.001781
-0.001575
-0.001515
-0.001565
-0.001528
-0.001474
-0.001498
-0.001555
-0.001478
-0.001481
-0.001690
-0.001751
-0.001562
-0.001468
-0.001494
-0.001434
-0.001606
-0.001886
-0.001866
-0.001548
-0.001559
-0.001737
-0.001707
-0.001764
-0.001788
-0.001511
-0.001366
-0.001417
-0.001346
-0.001164
-0.001275
-0.001596
-0.001663
-0.001478
-0.001343
-0.001393
-0.001454
-0.001538
-0.001575
-0.001555
-0.001339
-0.001272
-0.001370
-0.001670
-0.001825
-0.001636
-0.001623
-0.001788
-0.001791
-0.001596
-0.001640
-0.001930
-0.002031
-0.001866
-0.001879
-0.002149
-0.002058
-0.001842
-0.001687
-0.001478
-0.001225
-0.001181
-0.001211
-0.001117
-0.001012
-0.001110
-0.001295
-0.001252
-0.001137
-0.001100
-0.001147
-0.001194
-0.001221
-0.001117
-0.000978
-0.000867
-0.000982
-0.001265
-0.001380
-0.001336
-0.001393
-0.001468
-0.001292
-0.001309
-0.001353
-0.001387
-0.001140
-0.000921
-0.000955
-0.001069
-0.001157
-0.001214
-0.001107
-0.001039
-0.001022
-0.001080
-0.001130
-0.001147
-0.001174
-0.001319
-0.001322
-0.001329
-0.001444
-0.001565
-0.001484
-0.001333
-0.001353
-0.001299
-0.001080
-0.001042
-0.001373
-0.001488
-0.001316
-0.001245
-0.001356
-0.001252
-0.001022
-0.001096
-0.001447
-0.001656
-0.001606
-0.001717
-0.001778
-0.001656
-0.001569
-0.001548
-0.001285
-0.001053
-0.001336
-0.001751
-0.001528
-0.001268
-0.001285
-0.001086
-0.000702
-0.000655
-0.000897
-0.000867
-0.000722
-0.000924
-0.001137
-0.000931
-0.000681
-0.000742
-0.000779
-0.000675
-0.000735
-0.000928
-0.000945
-0.000884
-0.001137
-0.001481
-0.001488
-0.001322
-0.001218
-0.001231
-0.001211
-0.001015
-0.000901
-0.001076
-0.001177
-0.001090
-0.000924
-0.000918
-0.000894
-0.000931
-0.001107
-0.001039
-0.000766
-0.000742
-0.000961
-0.001103
-0.001002
-0.000820
-0.000665
-0.000681
-0.000887
-0.001235
-0.001373
-0.001194
-0.000985
-0.000786
-0.000719
-0.000773
-0.000924
-0.000854
-0.000503
-0.000385
-0.000611
-0.000800
-0.000847
-0.000931
-0.000877
-0.000837
-0.000860
-0.000816
-0.000685
-0.000631
-0.000678
-0.000644
-0.000681
-0.000894
-0.001005
-0.000877
-0.000752
-0.000628
-0.000428
-0.000378
-0.000685
-0.000955
-0.000985
-0.000911
-0.000935
-0.001002
-0.000884
-0.000692
-0.000651
-0.000874
-0.001032
-0.001103
-0.001127
-0.001032
-0.000877
-0.000965
-0.001157
-0.000985
-0.000658
-0.000641
-0.000769
-0.000833
-0.000847
-0.000901
-0.000762
-0.000523
-0.000459
-0.000442
-0.000327
-0.000267
-0.000401
-0.000621
-0.000644
-0.000624
-0.000793
-0.000931
-0.000719
-0.000580
-0.000594
-0.000570
-0.000563
-0.000661
-0.000675
-0.000489
-0.000442
-0.000712
-0.000692
-0.000543
-0.000644
-0.000732
-0.000722
-0.000843
-0.001053
-0.000972
-0.000904
-0.000985
-0.000982
-0.000800
-0.000796
-0.000847
-0.000729
-0.000489
-0.000439
-0.000479
-0.000574
-0.000732
-0.000931
-0.000951
-0.000800
-0.000800
-0.000850
-0.000658
-0.000418
-0.000321
-0.000287
-0.000148
-0.000152
-0.000499
-0.000732
-0.000607
-0.000634
-0.000823
-0.000820
-0.000695
-0.000563
-0.000553
-0.000563
-0.000520
-0.000611
-0.000641
-0.000624
-0.000543
-0.000513
-0.000536
-0.000391
-0.000213
-0.000250
-0.000287
-0.000219
-0.000223
-0.000428
-0.000472
-0.000401
-0.000331
-0.000290
-0.000253
-0.000351
-0.000509
-0.000611
-0.000580
-0.000638
-0.000789
-0.000715
-0.000499
-0.000439
-0.000452
-0.000412
-0.000459
-0.000597
-0.000655
-0.000435
-0.000256
-0.000334
-0.000469
-0.000570
-0.000621
-0.000479
-0.000358
-0.000368
-0.000395
-0.000486
-0.000611
-0.000648
-0.000604
-0.000563
-0.000516
-0.000516
-0.000415
-0.000378
-0.000590
-0.000752
-0.000881
-0.000901
-0.000658
-0.000533
-0.000466
-0.000509
-0.000530
-0.000536
-0.000520
-0.000530
-0.000415
-0.000435
-0.000560
-0.000435
-0.000375
-0.000462
-0.000391
-0.000250
-0.000348
-0.000594
-0.000587
-0.000587
-0.000793
-0.000813
-0.000607
-0.000621
-0.000634
-0.000415
-0.000300
-0.000452
-0.000550
-0.000388
-0.000364
-0.000557
-0.000641
-0.000655
-0.000749
-0.000816
-0.000692
-0.000604
-0.000624
-0.000536
-0.000476
-0.000503
-0.000449
-0.000263
-0.000304
-0.000445
-0.000405
-0.000307
-0.000307
-0.000250
-0.000189
-0.000381
-0.000634
-0.000513
-0.000310
-0.000324
-0.000567
-0.000655
-0.000671
-0.000752
-0.000587
-0.000425
-0.000408
-0.000472
-0.000317
-0.000256
-0.000351
-0.000486
-0.000425
-0.000348
-0.000425
-0.000513
-0.000415
-0.000219
-0.000202
-0.000334
-0.000401
-0.000297
-0.000206
-0.000442
-0.000708
-0.000685
-0.000648
-0.000685
-0.000702
-0.000523
-0.000459
-0.000401
-0.000186
0.000051
-0.000057
-0.000233
-0.000169
-0.000162
-0.000452
-0.000692
-0.000651
-0.000486
-0.000412
-0.000395
-0.000240
-0.000044
-0.000088
-0.000391
-0.000472
-0.000375
-0.000459
-0.000577
-0.000442
-0.000324
-0.000412
-0.000361
-0.000202
-0.000226
-0.000425
-0.000482
-0.000354
-0.000314
-0.000267
-0.000165
-0.000243
-0.000493
-0.000543
-0.000378
-0.000297
-0.000307
-0.000428
-0.000675
-0.000908
-0.000769
-0.000459
-0.000506
-0.000651
-0.000442
-0.000192
-0.000240
-0.000270
-0.000172
-0.000209
-0.000398
-0.000631
-0.000560
-0.000540
-0.000466
-0.000361
-0.000395
-0.000391
-0.000351
-0.000273
-0.000226
-0.000348
-0.000398
-0.000280
-0.000145
-0.000142
-0.000250
-0.000283
-0.000304
-0.000351
-0.000449
-0.000563
-0.000698
-0.000631
-0.000482
-0.000590
-0.000708
-0.000665
-0.000547
-0.000523
-0.000482
-0.000401
-0.000388
-0.000344
-0.000209
-0.000182
-0.000428
-0.000547
-0.000300
-0.000192
-0.000290
-0.000327
-0.000321
-0.000516
-0.000762
-0.000651
-0.000310
-0.000324
-0.000442
-0.000324
-0.000229
-0.000364
-0.000503
-0.000472
-0.000445
-0.000327
-0.000138
-0.000162
-0.000273
-0.000182
-0.000068
-0.000101
-0.000084
0.000088
0.000051
-0.000159
-0.000213
-0.000118
-0.000162
-0.000182
-0.000202
-0.000175
-0.000246
-0.000331
-0.000398
-0.000506
-0.000520
-0.000604
-0.000634
-0.000428
-0.000213
-0.000199
-0.000091
-0.000044
-0.000159
-0.000240
-0.000310
-0.000324
-0.000331
-0.000290
-0.000287
-0.000280
-0.000223
-0.000196
-0.000310
-0.000415
-0.000310
-0.000233
-0.000132
-0.000118
-0.000135
-0.000253
-0.000452
-0.000462
-0.000304
-0.000179
-0.000226
-0.000256
-0.000310
-0.000401
-0.000466
-0.000425
-0.000310
-0.000192
-0.000229
-0.000405
-0.000459
-0.000162
-0.000081
-0.000243
-0.000354
-0.000250
-0.000179
-0.000310
-0.000337
-0.000202
-0.000300
-0.000499
-0.000408
-0.000172
-0.000057
-0.000054
-0.000051
-0.000196
-0.000314
-0.000216
-0.000267
-0.000466
-0.000530
-0.000317
-0.000182
-0.000294
-0.000267
-0.000253
-0.000469
-0.000611
-0.000351
-0.000175
-0.000226
-0.000213
-0.000283
-0.000358
-0.000287
-0.000054
-0.000068
-0.000172
-0.000024
0.000158
0.000054
-0.000003
0.000081
-0.000051
-0.000307
-0.000250
-0.000179
-0.000219
-0.000192
-0.000051
-0.000041
-0.000189
-0.000341
-0.000314
-0.000159
-0.000125
-0.000084
-0.000142
-0.000240
-0.000098
0.000030
0.000071
0.000111
0.000125
0.000027
-0.000068
0.000010
0.000118
0.000034
-0.000132
-0.000091
-0.000041
-0.000108
-0.000095
0.000013
-0.000084
-0.000226
-0.000226
-0.000135
-0.000095
-0.000310
-0.000226
-0.000081
-0.000196
-0.000364
-0.000287
-0.000236
-0.000280
-0.000314
-0.000280
-0.000317
-0.000331
-0.000202
-0.000057
-0.000071
-0.000172
-0.000162
-0.000091
-0.000054
-0.000081
-0.000105
-0.000182
-0.000219
-0.000074
0.000017
-0.000074
-0.000159
-0.000034
0.000061
-0.000051
-0.000223
-0.000283
-0.000317
-0.000260
-0.000111
-0.000135
-0.000196
-0.000324
-0.000455
-0.000361
-0.000267
-0.000348
-0.000530
-0.000607
-0.000543
-0.000486
-0.000418
-0.000192
-0.000084
-0.000175
-0.000253
-0.000202
-0.000138
-0.000209
-0.000270
-0.000412
-0.000442
-0.000337
-0.000368
-0.000331
-0.000115
0.000051
0.000118
0.000088
0.000084
-0.000068
-0.000260
-0.000138
0.000054
-0.000148
-0.000304
-0.000219
-0.000148
-0.000078
0.000010
0.000145
0.000101
0.000051
0.000074
0.000051
0.000020
0.000024
-0.000148
-0.000277
-0.000182
-0.000155
-0.000341
-0.000418
-0.000297
-0.000209
-0.000263
-0.000226
-0.000007
0.000024
-0.000125
-0.000138
-0.000051
-0.000091
-0.000128
-0.000044
-0.000078
-0.000297
-0.000324
-0.000229
-0.000270
-0.000398
-0.000226
-0.000138
-0.000196
-0.000125
0.000071
0.000057
-0.000074
-0.000105
-0.000108
-0.000101
-0.000125
-0.000145
-0.000128
-0.000095
-0.000105
-0.000199
-0.000172
-0.000118
-0.000179
-0.000172
-0.000057
-0.000020
-0.000088
-0.000074
-0.000108
-0.000202
-0.000148
0.000067
0.000061
-0.000206
-0.000219
0.000007
0.000128
0.000105
0.000118
0.000098
-0.000138
-0.000256
-0.000057
0.000034
-0.000202
-0.000324
-0.000192
-0.000135
-0.000216
-0.000084
0.000030
-0.000101
-0.000101
-0.000061
-0.000118
-0.000118
-0.000017
-0.000044
-0.000344
-0.000401
-0.000324
-0.000348
-0.000182
0.000047
0.000084
-0.000105
-0.000074
0.000040
0.000030
-0.000044
0.000057
0.000111
-0.000024
-0.000125
-0.000192
-0.000202
-0.000105
-0.000044
-0.000084
-0.000152
-0.000256
-0.000213
-0.000165
-0.000236
-0.000175
-0.000172
-0.000128
0.000037
0.000223
0.000246
0.000189
0.000115
0.000135
0.000044
-0.000054
-0.000111
-0.000138
-0.000145
-0.000138
-0.000111
-0.000155
-0.000250
-0.000192
0.000007
0.000155
0.000243
0.000219
0.000135
0.000064
0.000007
-0.000068
-0.000175
-0.000169
-0.000121
-0.000138
-0.000121
0.000010
0.000132
0.000196
0.000239
0.000189
0.000064
-0.000034
-0.000078
0.000051
0.000239
0.000101
-0.000108
-0.000175
-0.000132
-0.000068
-0.000014
0.000084
-0.000034
-0.000233
-0.000135
-0.000081
-0.000145
-0.000260
-0.000317
-0.000344
-0.000321
-0.000172
-0.000206
-0.000267
-0.000192
-0.000061
-0.000142
-0.000175
-0.000054
0.000138
0.000209
0.000185
0.000185
0.000044
-0.000081
-0.000111
-0.000223
-0.000331
-0.000327
-0.000152
-0.000054
-0.000000
0.000064
0.000024
0.000024
0.000003
-0.000024
-0.000037
0.000024
0.000138
0.000148
0.000101
0.000040
0.000044
-0.000041
-0.000240
-0.000256
-0.000169
-0.000098
-0.000169
-0.000162
-0.000061
0.000027
0.000013
-0.000030
-0.000152
-0.000236
-0.000145
-0.000044
0.000024
0.000051
0.000091
0.000165
0.000226
0.000229
0.000148
-0.000037
-0.000233
-0.000250
-0.000128
-0.000024
0.000013
-0.000054
-0.000061
-0.000020
-0.000003
-0.000041
-0.000115
-0.000091
0.000111
0.000229
0.000263
0.000175
0.000074
-0.000020
0.000003
0.000054
-0.000081
-0.000300
-0.000327
-0.000240
-0.000236
-0.000169
0.000071
0.000155
0.000074
0.000098
0.000145
0.000155
0.000091
0.000138
0.000101
-0.000007
0.000044
0.000132
0.000007
-0.000138
-0.000034
-0.000030
-0.000061
0.000091
0.000256
0.000226
0.000027
-0.000014
0.000071
0.000071
-0.000000
-0.000024
-0.000105
-0.000095
-0.000064
0.000064
0.000135
0.000121
0.000067
0.000051
0.000088
-0.000064
-0.000206
-0.000179
-0.000189
-0.000294
-0.000233
0.000061
0.000128
0.000003
0.000007
0.000074
-0.000003
-0.000068
-0.000088
-0.000098
-0.000256
-0.000253
-0.000061
0.000064
-0.000017
0.000010
0.000162
0.000169
0.000209
0.000260
0.000273
0.000101
-0.000054
0.000010
0.000071
0.000034
0.000088
0.000057
-0.000054
-0.000074
0.000064
0.000277
0.000256
0.000084
0.000007
0.000064
0.000115
0.000078
0.000044
-0.000007
0.000013
-0.000027
-0.000054
-0.000027
0.000013
0.000105
0.000266
0.000344
0.000354
0.000239
0.000074
-0.000024
-0.000111
-0.000118
-0.000010
0.000098
0.000061
0.000121
0.000219
0.000121
-0.000037
-0.000121
-0.000169
-0.000233
-0.000118
0.000067
0.000158
0.000158
0.000057
-0.000074
-0.000186
-0.000095
0.000158
0.000327
0.000337
0.000327
0.000317
0.000253
0.000158
0.000111
0.000051
-0.000061
-0.000064
0.000088
0.000155
0.000007
-0.000088
-0.000148
-0.000105
0.000013
0.000078
0.000142
0.000162
0.000158
0.000209
0.000277
0.000253
0.000165
0.000175
0.000229
0.000206
-0.000030
-0.000118
0.000007
0.000108
0.000135
0.000216
0.000290
0.000300
0.000236
0.000209
0.000135
0.000030
0.000047
0.000078
0.000088
0.000044
-0.000020
-0.000159
-0.000317
-0.000300
-0.000121
-0.000020
0.000037
0.000216
0.000132
0.000074
0.000135
0.000088
-0.000027
-0.000024
0.000034
-0.000078
-0.000148
-0.000152
-0.000061
-0.000007
0.000007
0.000074
0.000111
0.000155
0.000074
-0.000003
-0.000037
-0.000135
-0.000253
-0.000196
0.000034
0.000010
-0.000135
-0.000044
-0.000024
-0.000051
-0.000078
0.000064
0.000020
-0.000115
-0.000041
0.000108
0.000105
0.000088
0.000233
0.000273
0.000253
0.000253
0.000307
0.000283
0.000226
0.000216
0.000145
0.000040
-0.000074
-0.000095
0.000013
0.000034
0.000013
0.000067
0.000138
0.000084
0.000071
0.000108
0.000189
0.000189
0.000233
0.000270
0.000172
0.000078
0.000088
0.000111
0.000057
0.000003
-0.000037
-0.000037
-0.000155
-0.000142
-0.000010
0.000013
-0.000003
0.000064
0.000081
-0.000000
0.000010
0.000162
0.000121
-0.000115
-0.000216
-0.000159
-0.000098
-0.000027
0.000105
0.000081
-0.000020
-0.000091
-0.000145
-0.000128
-0.000175
-0.000351
-0.000253
0.000013
0.000142
0.000030
0.000051
0.000125
0.000017
-0.000105
-0.000182
-0.000044
0.000115
0.000142
0.000128
0.000074
0.000162
0.000142
0.000115
0.000142
0.000172
0.000206
0.000175
0.000243
0.000236
0.000155
0.000128
0.000277
0.000418
0.000310
0.000219
0.000179
0.000162
0.000121
0.000145
0.000132
0.000128
0.000121
0.000020
-0.000098
-0.000101
0.000024
0.000078
0.000017
-0.000020
0.000024
0.000040
-0.000017
-0.000024
0.000061
0.000091
0.000138
0.000209
0.000185
0.000121
0.000064
0.000051
0.000125
0.000074
-0.000003
0.000034
0.000175
0.000263
0.000196
0.000142
0.000179
0.000219
0.000165
0.000074
0.000152
0.000202
0.000155
0.000054
0.000108
0.000175
0.000165
0.000088
0.000071
0.000044
-0.000051
-0.000142
-0.000068
0.000013
0.000007
0.000034
0.000047
0.000034
0.000027
0.000081
0.000189
0.000246
0.000182
0.000158
0.000145
0.000071
0.000121
0.000121
0.000105
0.000061
0.000047
-0.000010
0.000047
0.000158
0.000239
0.000229
0.000098
0.000054
0.000169
0.000172
0.000185
0.000246
0.000317
0.000246
0.000111
0.000088
0.000067
-0.000034
-0.000044
0.000084
0.000091
0.000081
0.000226
0.000331
0.000185
-0.000017
-0.000061
-0.000030
-0.000078
-0.000088
0.000017
0.000017
-0.000010
0.000128
0.000260
0.000219
0.000105
0.000128
0.000158
0.000158
0.000152
0.000111
0.000081
0.000088
0.000148
0.000226
0.000212
0.000223
0.000364
0.000236
0.000040
0.000118
0.000256
0.000169
-0.000034
-0.000118
-0.000098
-0.000088
-0.000061
0.000067
0.000148
0.000152
0.000162
0.000148
0.000047
-0.000010
0.000047
0.000111
0.000121
0.000152
0.000236
0.000246
0.000219
0.000266
0.000358
0.000239
0.000118
0.000105
0.000084
0.000027
0.000017
0.000034
-0.000044
-0.000017
0.000155
0.000233
0.000169
0.000179
0.000192
0.000037
-0.000078
-0.000051
-0.000088
-0.000105
-0.000098
-0.000047
-0.000057
0.000020
0.000142
0.000175
0.000037
-0.000064
-0.000030
0.000088
0.000202
0.000293
0.000260
0.000192
0.000293
0.000280
0.000223
0.000226
0.000202
0.000148
0.000182
0.000253
0.000229
0.000192
0.000088
0.000128
0.000209
0.000236
0.000317
0.000371
0.000304
0.000233
0.000078
0.000047
0.000132
0.000010
-0.000111
-0.000027
0.000165
0.000192
0.000128
0.000128
0.000135
0.000088
0.000078
0.000121
0.000098
0.000020
0.000179
0.000327
0.000320
0.000219
0.000219
0.000310
0.000331
0.000266
0.000219
0.000202
0.000128
0.000074
0.000044
0.000115
0.000185
0.000111
0.000088
0.000057
0.000054
0.000101
0.000175
0.000148
0.000091
0.000091
0.000138
0.000088
-0.000010
0.000013
-0.000017
-0.000010
0.000152
0.000212
0.000108
0.000054
0.000175
0.000290
0.000287
0.000347
0.000361
0.000199
0.000037
0.000078
0.000226
0.000209
0.000125
0.000165
0.000162
0.000162
0.000209
0.000337
0.000331
0.000253
0.000138
0.000054
0.000017
-0.000007
-0.000047
-0.000027
0.000064
0.000196
0.000199
0.000202
0.000304
0.000347
0.000277
0.000266
0.000337
0.000280
0.000293
0.000229
0.000034
-0.000041
-0.000014
-0.000159
-0.000236
-0.000095
0.000074
0.000013
0.000061
0.000165
0.000138
0.000044
0.000094
0.000212
0.000142
0.000165
0.000270
0.000256
0.000108
-0.000054
-0.000003
0.000128
0.000229
0.000216
0.000243
0.000138
0.000081
0.000057
0.000138
0.000169
0.000078
0.000132
0.000263
0.000317
0.000250
0.000266
0.000246
0.000125
-0.000003
0.000003
-0.000044
-0.000142
-0.000081
0.000010
0.000071
0.000162
0.000297
0.000395
0.000368
0.000337
0.000297
0.000314
0.000317
0.000374
0.000438
0.000361
0.000310
0.000260
0.000239
0.000233
0.000169
0.000003
-0.000041
0.000024
0.000024
0.000017
0.000125
0.000148
0.000115
0.000199
0.000277
0.000219
0.000192
0.000320
0.000405
0.000378
0.000331
0.000334
0.000266
0.000253
0.000290
0.000304
0.000226
0.000297
0.000412
0.000354
0.000266
0.000256
0.000270
0.000243
0.000074
-0.000128
-0.000125
0.000047
0.000138
0.000118
0.000182
0.000239
0.000239
0.000115
-0.000020
-0.000152
-0.000192
0.000044
0.000202
0.000098
0.000172
0.000354
0.000354
0.000155
0.000209
0.000273
0.000233
0.000175
0.000236
0.000233
0.000094
0.000054
-0.000030
-0.000118
0.000027
0.000216
0.000354
0.000347
0.000314
0.000226
0.000152
0.000145
0.000145
0.000145
0.000155
0.000239
0.000283
0.000233
0.000175
0.000158
0.000212
0.000199
0.000169
0.000212
0.000263
0.000212
0.000071
-0.000017
0.000051
0.000185
0.000182
0.000196
0.000300
0.000331
0.000273
0.000263
0.000310
0.000229
0.000172
0.000175
0.000209
0.000148
0.000094
0.000020
-0.000010
0.000051
0.000108
0.000236
0.000280
0.000314
0.000300
0.000266
0.000263
0.000293
0.000287
0.000327
0.000418
0.000405
0.000307
0.000320
0.000300
0.000125
-0.000071
0.000003
0.000152
0.000202
0.000189
0.000280
0.000334
0.000297
0.000219
0.000209
0.000132
0.000054
0.000101
0.000098
0.000138
0.000226
0.000304
0.000260
0.000165
0.000155
0.000202
0.000223
0.000229
0.000300
0.000290
0.000317
0.000415
0.000415
0.000260
0.000105
0.000152
0.000236
0.000172
0.000212
0.000250
0.000250
0.000189
0.000108
0.000175
0.000239
0.000246
0.000192
0.000202
0.000331
0.000476
0.000398
0.000351
0.000378
0.000256
0.000105
0.000044
0.000132
0.000182
0.000148
0.000138
0.000206
0.000196
0.000212
0.000236
0.000229
0.000132
0.000101
0.000202
0.000250
0.000196
0.000199
0.000300
0.000277
0.000199
0.000297
0.000300
0.000243
0.000179
0.000162
0.000179
0.000165
0.000162
0.000236
0.000246
0.000239
0.000185
0.000189
0.000229
0.000148
0.000078
0.000040
0.000135
0.000199
0.000239
0.000314
0.000358
0.000378
0.000334
0.000334
0.000381
0.000462
0.000388
0.000266
0.000233
0.000162
0.000199
0.000327
0.000401
0.000381
0.000256
0.000172
0.000206
0.000239
0.000003
-0.000189
-0.000047
0.000152
0.000158
0.000169
0.000189
0.000098
0.000051
0.000138
0.000226
0.000223
0.000270
0.000337
0.000331
0.000310
0.000293
0.000250
0.000074
0.000044
0.000199
0.000256
0.000287
0.000364
0.000422
0.000331
0.000273
0.000283
0.000401
0.000304
0.000067
-0.000027
0.000078
0.000199
0.000202
0.000169
0.000246
0.000320
0.000263
0.000314
0.000398
0.000422
0.000260
0.000145
0.000226
0.000223
-0.000047
-0.000206
-0.000061
0.000098
0.000145
0.000253
0.000381
0.000307
0.000158
0.000074
0.000175
0.000263
0.000219
0.000334
0.000337
0.000310
0.000412
0.000459
0.000442
0.000256
0.000094
0.000105
0.000132
0.000169
0.000266
0.000300
0.000310
0.000388
0.000479
0.000465
0.000381
0.000263
0.000199
0.000027
-0.000034
0.000105
0.000310
0.000344
0.000314
0.000317
0.000270
0.000125
0.000047
0.000185
0.000256
0.000273
0.000337
0.000422
0.000422
0.000385
0.000300
0.000199
0.000162
0.000185
0.000256
0.000212
0.000132
0.000165
0.000226
0.000206
0.000155
0.000108
0.000051
0.000132
0.000138
0.000172
0.000277
0.000358
0.000324
0.000283
0.000253
0.000263
0.000250
0.000229
0.000253
0.000277
0.000327
0.000449
0.000499
0.000472
0.000395
0.000354
0.000320
0.000307
0.000324
0.000344
0.000283
0.000226
0.000239
0.000270
0.000280
0.000246
0.000155
0.000040
0.000044
0.000155
0.000297
0.000361
0.000428
0.000533
0.000499
0.000428
0.000378
0.000260
0.000081
0.000071
0.000250
0.000310
0.000212
0.000199
0.000300
0.000280
0.000277
0.000374
0.000469
0.000452
0.000368
0.000425
0.000391
0.000408
0.000438
0.000398
0.000361
0.000314
0.000341
0.000280
0.000182
0.000189
0.000243
0.000260
0.000293
0.000391
0.000412
0.000216
0.000101
0.000202
0.000270
0.000270
0.000297
0.000317
0.000307
0.000270
0.000206
0.000219
0.000270
0.000324
0.000273
0.000209
0.000253
0.000287
0.000320
0.000344
0.000351
0.000334
0.000327
0.000304
0.000297
0.000260
0.000155
0.000067
0.000091
0.000152
0.000212
0.000270
0.000378
0.000412
0.000435
0.000432
0.000472
0.000462
0.000401
0.000337
0.000327
0.000246
0.000243
0.000307
0.000361
0.000283
0.000229
0.000229
0.000182
0.000037
0.000051
0.000105
0.000121
0.000273
0.000422
0.000388
0.000371
0.000300
0.000209
0.000132
0.000094
0.000256
0.000320
0.000358
0.000253
0.000223
0.000216
0.000192
0.000182
0.000243
0.000290
0.000192
0.000020
0.000040
0.000189
0.000250
0.000300
0.000361
0.000401
0.000361
0.000317
0.000364
0.000371
0.000270
0.000192
0.000196
0.000155
0.000125
0.000206
0.000337
0.000374
0.000344
0.000405
0.000401
0.000452
0.000425
0.000469
0.000401
0.000324
0.000378
0.000422
0.000327
0.000277
0.000256
0.000233
0.000202
0.000185
0.000158
0.000152
0.000199
0.000253
0.000354
0.000334
0.000374
0.000361
0.000256
0.000108
-0.000088
-0.000108
0.000067
0.000155
0.000209
0.000226
0.000229
0.000253
0.000270
0.000358
0.000358
0.000307
0.000317
0.000388
0.000371
0.000243
0.000243
0.000347
0.000202
0.000108
0.000155
0.000216
0.000118
0.000071
0.000094
0.000138
0.000108
0.000172
0.000280
0.000300
0.000219
0.000189
0.000165
0.000132
0.000199
0.000266
0.000270
0.000236
0.000307
0.000327
0.000175
0.000239
0.000412
0.000385
0.000327
0.000341
0.000307
0.000132
0.000121
0.000317
0.000395
0.000304
0.000273
0.000263
0.000165
0.000209
0.000280
0.000304
0.000250
0.000354
0.000415
0.000256
0.000152
0.000270
0.000368
0.000314
0.000320
0.000371
0.000398
0.000395
0.000297
0.000206
0.000155
0.000185
0.000297
0.000418
0.000408
0.000381
0.000401
0.000405
0.000364
0.000317
0.000250
0.000307
0.000361
0.000395
0.000401
0.000361
0.000270
0.000266
0.000371
0.000428
0.000344
0.000351
0.000374
0.000381
0.000317
0.000236
0.000283
0.000314
0.000351
0.000347
0.000314
0.000324
0.000304
0.000317
0.000263
0.000138
0.000128
0.000219
0.000246
0.000239
0.000324
0.000415
0.000438
0.000422
0.000452
0.000395
0.000223
0.000202
0.000277
0.000354
0.000297
0.000300
0.000364
0.000418
0.000385
0.000408
0.000418
0.000246
0.000145
0.000216
0.000334
0.000310
0.000270
0.000351
0.000422
0.000320
0.000233
0.000226
0.000206
0.000300
0.000354
0.000310
0.000347
0.000388
0.000358
0.000381
0.000368
0.000314
0.000341
0.000337
0.000398
0.000445
0.000425
0.000459
0.000499
0.000449
0.000405
0.000381
0.000381
0.000307
0.000216
0.000239
0.000307
0.000381
0.000438
0.000449
0.000368
0.000263
0.000202
0.000233
0.000280
0.000266
0.000115
0.000088
0.000192
0.000277
0.000253
0.000172
0.000132
0.000108
0.000233
0.000354
0.000412
0.000337
0.000314
0.000344
0.000327
0.000270
0.000327
0.000354
0.000320
0.000290
0.000243
0.000266
0.000263
0.000212
0.000101
-0.000020
0.000024
0.000212
0.000371
0.000374
0.000422
0.000573
0.000563
0.000533
0.000509
0.000351
0.000145
0.000098
0.000125
0.000054
0.000051
0.000185
0.000236
0.000270
0.000297
0.000263
0.000189
0.000199
0.000280
0.000280
0.000354
0.000469
0.000509
0.000408
0.000351
0.000307
0.000358
0.000361
0.000398
0.000469
0.000462
0.000499
0.000533
0.000391
0.000270
0.000324
0.000405
0.000374
0.000347
0.000381
0.000388
0.000334
0.000361
0.000334
0.000229
0.000111
0.000219
0.000358
0.000378
0.000270
0.000263
0.000341
0.000334
0.000277
0.000256
0.000263
0.000196
0.000182
0.000223
0.000263
0.000331
0.000418
0.000486
0.000462
0.000422
0.000422
0.000334
0.000266
0.000371
0.000408
0.000401
0.000432
0.000438
0.000405
0.000341
0.000314
0.000270
0.000172
0.000226
0.000341
0.000378
0.000327
0.000361
0.000351
0.000344
0.000347
0.000385
0.000341
0.000361
0.000405
0.000455
0.000442
0.000455
0.000374
0.000293
0.000287
0.000297
0.000307
0.000358
0.000320
0.000354
0.000418
0.000438
0.000364
0.000310
0.000189
0.000185
0.000202
0.000169
0.000202
0.000327
0.000334
0.000297
0.000381
0.000499
0.000479
0.000391
0.000408
0.000371
0.000206
0.000145
0.000182
0.000219
0.000236
0.000250
0.000246
0.000250
0.000395
0.000445
0.000398
0.000388
0.000368
0.000364
0.000192
0.000148
0.000132
0.000125
0.000172
0.000273
0.000223
0.000007
0.000007
0.000155
0.000172
0.000202
0.000236
0.000226
0.000206
0.000300
0.000455
0.000489
0.000435
0.000469
0.000479
0.000496
0.000442
0.000408
0.000374
0.000121
0.000013
0.000081
0.000179
0.000206
0.000290
0.000341
0.000324
0.000185
0.000138
0.000239
0.000165
0.000185
0.000320
0.000418
0.000381
0.000432
0.000543
0.000482
0.000398
0.000496
0.000553
0.000405
0.000270
0.000277
0.000229
0.000172
0.000344
0.000509
0.000499
0.000408
0.000374
0.000401
0.000391
0.000347
0.000334
0.000347
0.000334
0.000324
0.000354
0.000412
0.000422
0.000334
0.000331
0.000422
0.000408
0.000438
0.000496
0.000597
0.000509
0.000445
0.000472
0.000492
0.000381
0.000341
0.000385
0.000385
0.000250
0.000243
0.000331
0.000432
0.000459
0.000486
0.000459
0.000280
0.000290
0.000408
0.000442
0.000405
0.000452
0.000465
0.000337
0.000233
0.000239
0.000253
0.000293
0.000378
0.000385
0.000347
0.000320
0.000307
0.000358
0.000331
0.000314
0.000256
0.000293
0.000334
0.000246
0.000101
0.000101
0.000199
0.000347
0.000422
0.000435
0.000435
0.000405
0.000341
0.000344
0.000381
0.000408
0.000327
0.000374
0.000374
0.000293
0.000206
0.000236
0.000331
0.000212
0.000165
0.000334
0.000428
0.000412
0.000273
0.000283
0.000378
0.000364
0.000425
0.000425
0.000391
0.000354
0.000385
0.000465
0.000418
0.000428
0.000459
0.000476
0.000452
0.000378
0.000351
0.000374
0.000395
0.000455
0.000462
0.000381
0.000307
0.000300
0.000317
0.000354
0.000374
0.000422
0.000459
0.000459
0.000422
0.000459
0.000469
0.000344
0.000199
0.000118
0.000239
0.000277
0.000283
0.000304
0.000331
0.000371
0.000320
0.000300
0.000283
0.000223
0.000202
0.000297
0.000408
0.000428
0.000391
0.000408
0.000418
0.000361
0.000327
0.000388
0.000320
0.000263
0.000310
0.000310
0.000324
0.000324
0.000300
0.000226
0.000118
0.000189
0.000300
0.000415
0.000452
0.000438
0.000364
0.000283
0.000324
0.000256
0.000239
0.000256
0.000297
0.000341
0.000381
0.000442
0.000476
0.000530
0.000469
0.000361
0.000351
0.000418
0.000432
0.000364
0.000314
0.000277
0.000239
0.000327
0.000459
0.000412
0.000314
0.000364
0.000422
0.000378
0.000290
0.000341
0.000391
0.000418
0.000428
0.000492
0.000523
0.000550
0.000560
0.000479
0.000337
0.000374
0.000385
0.000250
0.000135
0.000273
0.000344
0.000293
0.000287
0.000361
0.000320
0.000179
0.000212
0.000324
0.000334
0.000277
0.000351
0.000459
0.000368
0.000293
0.000317
0.000331
0.000226
0.000199
0.000280
0.000401
0.000415
0.000445
0.000499
0.000523
0.000492
0.000499
0.000513
0.000513
0.000469
0.000449
0.000361
0.000371
0.000398
0.000412
0.000374
0.000438
0.000442
0.000361
0.000287
0.000287
0.000344
0.000310
0.000341
0.000422
0.000415
0.000368
0.000358
0.000358
0.000293
0.000256
0.000280
0.000337
0.000398
0.000469
0.000499
0.000509
0.000401
0.000374
0.000442
0.000401
0.000337
0.000280
0.000226
0.000239
0.000364
0.000398
0.000368
0.000293
0.000314
0.000246
0.000165
0.000179
0.000320
0.000304
0.000246
0.000307
0.000331
0.000290
0.000182
0.000108
0.000071
0.000169
0.000233
0.000182
0.000145
0.000233
0.000250
0.000277
0.000347
0.000503
0.000465
0.000422
0.000530
0.000621
0.000533
0.000499
0.000530
0.000465
0.000381
0.000388
0.000344
0.000266
0.000260
0.000371
0.000432
0.000425
0.000476
0.000513
0.000516
0.000482
0.000418
0.000347
0.000331
0.000391
0.000347
0.000287
0.000260
0.000317
0.000351
0.000341
0.000391
0.000408
0.000408
0.000368
0.000418
0.000482
0.000449
0.000371
0.000415
0.000395
0.000317
0.000351
0.000486
0.000452
0.000385
0.000445
0.000374
0.000297
0.000236
0.000310
0.000331
0.000223
0.000212
0.000344
0.000347
0.000310
0.000422
0.000496
0.000438
0.000364
0.000432
0.000489
0.000492
0.000459
0.000442
0.000435
0.000395
0.000398
0.000418
0.000317
0.000273
0.000317
0.000455
0.000445
0.000412
0.000482
0.000526
0.000560
0.000503
0.000482
0.000472
0.000401
0.000422
0.000408
0.000331
0.000307
0.000327
0.000280
0.000209
0.000256
0.000304
0.000310
0.000293
0.000378
0.000361
0.000334
0.000398
0.000509
0.000428
0.000385
0.000415
0.000412
0.000398
0.000432
0.000462
0.000435
0.000455
0.000489
0.000499
0.000479
0.000479
0.000513
0.000462
0.000425
0.000412
0.000405
0.000327
0.000337
0.000472
0.000496
0.000415
0.000388
0.000300
0.000155
0.000142
0.000209
0.000300
0.000381
0.000371
0.000405
0.000452
0.000418
0.000277
0.000169
0.000165
0.000266
0.000304
0.000300
0.000368
0.000435
0.000432
0.000489
0.000428
0.000361
0.000310
0.000354
0.000418
0.000418
0.000422
0.000428
0.000469
0.000489
0.000496
0.000442
0.000239
0.000253
0.000351
0.000378
0.000368
0.000405
0.000385
0.000293
0.000280
0.000408
0.000422
0.000314
0.000324
0.000354
0.000347
0.000314
0.000290
0.000391
0.000405
0.000368
0.000337
0.000253
0.000239
0.000327
0.000391
0.000418
0.000462
0.000503
0.000472
0.000418
0.000368
0.000368
0.000381
0.000428
0.000401
0.000358
0.000324
0.000368
0.000418
0.000401
0.000415
0.000398
0.000391
0.000408
0.000425
0.000418
0.000395
0.000371
0.000307
0.000270
0.000287
0.000391
0.000405
0.000347
0.000209
0.000125
0.000185
0.000307
0.000331
0.000374
0.000415
0.000401
0.000334
0.000317
0.000304
0.000287
0.000314
0.000300
0.000317
0.000395
0.000428
0.000391
0.000425
0.000482
0.000465
0.000435
0.000320
0.000297
0.000283
0.000304
0.000412
0.000496
0.000489
0.000469
0.000425
0.000391
0.000368
0.000341
0.000358
0.000374
0.000344
0.000476
0.000533
0.000482
0.000509
0.000401
0.000310
0.000307
0.000341
0.000412
0.000415
0.000432
0.000368
0.000347
0.000385
0.000347
0.000293
0.000260
0.000341
0.000428
0.000462
0.000476
0.000469
0.000462
0.000442
0.000432
0.000465
0.000489
0.000489
0.000496
0.000513
0.000428
0.000395
0.000462
0.000469
0.000391
0.000385
0.000412
0.000405
0.000432
0.000509
0.000526
0.000428
0.000445
0.000472
0.000523
0.000462
0.000499
0.000513
0.000438
0.000438
0.000371
0.000388
0.000351
0.000344
0.000361
0.000347
0.000381
0.000415
0.000482
0.000557
0.000543
0.000543
0.000452
0.000385
0.000337
0.000297
0.000250
0.000280
0.000408
0.000472
0.000492
0.000486
0.000462
0.000374
0.000358
0.000381
0.000320
0.000327
0.000395
0.000489
0.000516
0.000513
0.000465
0.000412
0.000455
0.000449
0.000482
0.000516
0.000503
0.000496
0.000425
0.000270
0.000209
0.000283
0.000344
0.000381
0.000465
0.000445
0.000405
0.000358
0.000398
0.000482
0.000459
0.000486
0.000462
0.000341
0.000344
0.000425
0.000418
0.000425
0.000422
0.000395
0.000395
0.000300
0.000246
0.000293
0.000300
0.000310
0.000381
0.000462
0.000418
0.000388
0.000462
0.000526
0.000486
0.000442
0.000496
0.000523
0.000479
0.000506
0.000412
0.000334
0.000364
0.000462
0.000536
0.000506
0.000476
0.000472
0.000401
0.000358
0.000391
0.000422
0.000381
0.000310
0.000297
0.000344
0.000408
0.000482
0.000536
0.000540
0.000492
0.000479
0.000412
0.000212
0.000169
0.000223
0.000287
0.000307
0.000378
0.000445
0.000479
0.000425
0.000462
0.000496
0.000445
0.000438
0.000519
0.000567
0.000543
0.000553
0.000577
0.000519
0.000479
0.000435
0.000499
0.000469
0.000428
0.000378
0.000415
0.000479
0.000492
0.000543
0.000536
0.000530
0.000486
0.000479
0.000492
0.000445
0.000324
0.000388
0.000398
0.000314
0.000307
0.000283
0.000280
0.000307
0.000344
0.000233
0.000111
0.000209
0.000398
0.000364
0.000388
0.000351
0.000283
0.000192
0.000307
0.000428
0.000412
0.000368
0.000398
0.000344
0.000324
0.000331
0.000344
0.000405
0.000452
0.000465
0.000469
0.000428
0.000469
0.000503
0.000435
0.000391
0.000452
0.000469
0.000445
0.000513
0.000526
0.000492
0.000492
0.000546
0.000546
0.000486
0.000479
0.000442
0.000374
0.000371
0.000351
0.000401
0.000425
0.000408
0.000368
0.000391
0.000391
0.000344
0.000260
0.000304
0.000385
0.000358
0.000405
0.000455
0.000408
0.000395
0.000364
0.000405
0.000428
0.000452
0.000452
0.000445
0.000452
0.000506
0.000503
0.000492
0.000486
0.000428
0.000388
0.000452
0.000415
0.000287
0.000145
0.000277
0.000368
0.000378
0.000438
0.000492
0.000462
0.000489
0.000526
0.000523
0.000435
0.000438
0.000496
0.000432
0.000364
0.000364
0.000401
0.000401
0.000378
0.000354
0.000307
0.000293
0.000364
0.000405
0.000405
0.000388
0.000435
0.000452
0.000388
0.000412
0.000499
0.000455
0.000432
0.000492
0.000499
0.000432
0.000408
0.000354
0.000334
0.000226
0.000148
0.000081
0.000020
0.000172
0.000358
0.000442
0.000469
0.000530
0.000584
0.000553
0.000482
0.000492
0.000385
0.000277
0.000344
0.000452
0.000445
0.000412
0.000519
0.000519
0.000476
0.000496
0.000526
0.000523
0.000503
0.000519
0.000489
0.000425
0.000412
0.000432
0.000418
0.000412
0.000395
0.000381
0.000449
0.000442
0.000405
0.000388
0.000368
0.000351
0.000405
0.000422
0.000368
0.000307
0.000385
0.000523
0.000506
0.000516
0.000570
0.000503
0.000465
0.000455
0.000462
0.000472
0.000459
0.000465
0.000422
0.000253
0.000331
0.000476
0.000479
0.000449
0.000489
0.000553
0.000516
0.000496
0.000472
0.000304
0.000223
0.000364
0.000418
0.000438
0.000405
0.000317
0.000196
0.000209
0.000300
0.000358
0.000334
0.000341
0.000391
0.000445
0.000506
0.000590
0.000600
0.000553
0.000489
0.000496
0.000452
0.000405
0.000314
0.000192
0.000287
0.000378
0.000455
0.000476
0.000469
0.000398
0.000364
0.000412
0.000438
0.000398
0.000401
0.000415
0.000368
0.000307
0.000327
0.000374
0.000361
0.000368
0.000479
0.000533
0.000479
0.000401
0.000378
0.000236
0.000118
0.000152
0.000148
0.000155
0.000293
0.000371
0.000364
0.000347
0.000415
0.000476
0.000418
0.000374
0.000408
0.000469
0.000492
0.000385
0.000351
0.000280
0.000334
0.000317
0.000300
0.000253
0.000236
0.000297
0.000472
0.000526
0.000496
0.000452
0.000347
0.000368
0.000465
0.000482
0.000506
0.000513
0.000449
0.000344
0.000334
0.000344
0.000317
0.000236
0.000263
0.000388
0.000445
0.000465
0.000499
0.000465
0.000374
0.000368
0.000422
0.000428
0.000398
0.000408
0.000469
0.000489
0.000412
0.000391
0.000452
0.000455
0.000438
0.000395
0.000418
0.000435
0.000476
0.000509
0.000526
0.000445
0.000405
0.000415
0.000381
0.000337
0.000334
0.000361
0.000428
0.000469
0.000506
0.000543
0.000536
0.000519
0.000584
0.000519
0.000452
0.000418
0.000435
0.000486
0.000482
0.000492
0.000503
0.000472
0.000455
0.000536
0.000557
0.000496
0.000499
0.000523
0.000486
0.000395
0.000368
0.000395
0.000287
0.000182
0.000216
0.000337
0.000358
0.000361
0.000395
0.000425
0.000395
0.000391
0.000459
0.000442
0.000391
0.000374
0.000368
0.000283
0.000358
0.000465
0.000455
0.000452
0.000550
0.000550
0.000492
0.000415
0.000445
0.000327
0.000250
0.000307
0.000368
0.000253
0.000280
0.000385
0.000452
0.000465
0.000503
0.000546
0.000553
0.000509
0.000567
0.000499
0.000364
0.000381
0.000408
0.000354
0.000344
0.000412
0.000479
0.000472
0.000492
0.000513
0.000526
0.000519
0.000553
0.000452
0.000273
0.000266
0.000327
0.000412
0.000489
0.000482
0.000412
0.000374
0.000395
0.000482
0.000445
0.000398
0.000405
0.000361
0.000361
0.000341
0.000391
0.000364
0.000401
0.000415
0.000401
0.000381
0.000465
0.000560
0.000573
0.000560
0.000570
0.000607
0.000617
0.000594
0.000604
0.000553
0.000530
0.000560
0.000557
0.000526
0.000395
0.000388
0.000415
0.000455
0.000465
0.000422
0.000381
0.000425
0.000567
0.000597
0.000523
0.000462
0.000388
0.000354
0.000381
0.000499
0.000530
0.000499
0.000533
0.000533
0.000523
0.000526
0.000536
0.000526
0.000523
0.000499
0.000492
0.000459
0.000371
0.000266
0.000273
0.000324
0.000347
0.000361
0.000331
0.000320
0.000324
0.000320
0.000344
0.000374
0.000401
0.000371
0.000354
0.000239
0.000246
0.000327
0.000324
0.000260
0.000297
0.000331
0.000351
0.000395
0.000489
0.000442
0.000378
0.000449
0.000553
0.000557
0.000506
0.000543
0.000557
0.000509
0.000462
0.000449
0.000482
0.000533
0.000472
0.000371
0.000391
0.000418
0.000368
0.000334
0.000398
0.000432
0.000412
0.000344
0.000374
0.000358
0.000206
0.000162
0.000307
0.000354
0.000317
0.000310
0.000310
0.000337
0.000401
0.000405
0.000398
0.000256
0.000199
0.000310
0.000438
0.000469
0.000449
0.000445
0.000435
0.000425
0.000435
0.000445
0.000469
0.000368
0.000206
0.000206
0.000327
0.000398
0.000428
0.000438
0.000523
0.000526
0.000499
0.000570
0.000563
0.000465
0.000479
0.000560
0.000587
0.000499
0.000509
0.000418
0.000385
0.000378
0.000395
0.000314
0.000263
0.000378
0.000503
0.000482
0.000452
0.000492
0.000486
0.000452
0.000462
0.000405
0.000405
0.000435
0.000546
0.000550
0.000503
0.000503
0.000550
0.000530
0.000489
0.000486
0.000482
0.000476
0.000543
0.000489
0.000449
0.000492
0.000543
0.000499
0.000374
0.000378
0.000465
0.000476
0.000462
0.000462
0.000503
0.000513
0.000465
0.000438
0.000459
0.000489
0.000516
0.000523
0.000533
