Start time = 18:33:16.433934
End time = 18:33:26.366981
laser_energy = 7.680
channel_1_dial = 850
channel_2_dial = 850
channel_3_dial = 850
channel_4_dial = 850
NG-1-LII = 0
NG-3-15399 = 0
NG-4-LII = 0
NG-4-15399 = 0
NG-5-LII = 0
NG-5-15399 = 0
NG-9-LII = 0
NG-9-15399 = 0
NG-10-01 = 0
NG-11-15399 = 0
NG-12-15399 = 0
NG-4A-2001 = 0
NG-4B-2001 = 0
NG-5A-2001 = 0
NG-3-2001 = 0
NG-5B-2001 = 0
NG-1-2001 = 0
NG-9-2001 = 0
NG-10-2001 = 0
NG-11-2001 = 0
NG-12-2001 = 0
AND-200SN09 = 0
AND-100SN09 = 0
AND-050SN09 = 0
AND-030SN09 = 0
AND-015SN05 = 0
PMT#1Voltage = 0
PMT#2Voltage = 0
t0(sec) = 0.000000E+0
dt(sec) = 4.000000E-10
F1:INSP "
DESCRIPTOR_NAME    : WAVEDESC           
TEMPLATE_NAME      : LECROY_2_3         
COMM_TYPE          : word               
COMM_ORDER         : HIFIRST            
WAVE_DESCRIPTOR    : 346                
USER_TEXT          : 0                  
RES_DESC1          : 0                  
TRIGTIME_ARRAY     : 0                  
RIS_TIME_ARRAY     : 0                  
RES_ARRAY1         : 0                  
WAVE_ARRAY_1       : 10002              
WAVE_ARRAY_2       : 0                  
RES_ARRAY2         : 0                  
RES_ARRAY3         : 0                  
INSTRUMENT_NAME    : LECROYHDO6104      
INSTRUMENT_NUMBER  : 6308               
TRACE_LABEL        :                    
RESERVED1          : 5001               
RESERVED2          : 0                  
WAVE_ARRAY_COUNT   : 5001               
PNTS_PER_SCREEN    : 5000               
FIRST_VALID_PNT    : 0                  
LAST_VALID_PNT     : 5000               
FIRST_POINT        : 0                  
SPARSING_FACTOR    : 1                  
SEGMENT_INDEX      : 0                  
SUBARRAY_COUNT     : 1                  
SWEEPS_PER_ACQ     : 200                
POINTS_PER_PAIR    : 0                  
PAIR_OFFSET        : 0                  
VERTICAL_GAIN      : 2.6238e-006        
VERTICAL_OFFSET    : 6.5501e-002        
MAX_VALUE          : 3.0816e+004        
MIN_VALUE          : 1.3388e+004        
NOMINAL_BITS       : 16                 
NOM_SUBARRAY_COUNT : 1                  
HORIZ_INTERVAL     : 4.0000e-010        
HORIZ_OFFSET       : -2.00000000e-007   
PIXEL_OFFSET       : -2.00000000e-007   
VERTUNIT           : Unit Name = V
HORUNIT            : Unit Name = S
HORIZ_UNCERTAINTY  : 1.0000e-012        
TRIGGER_TIME       : Date = APR 17, 2024, Time = 19:33:12.105208305
ACQ_DURATION       : 1.0199e+001        
RECORD_TYPE        : single_sweep       
PROCESSING_DONE    : no_processing      
RESERVED5          : 0                  
RIS_SWEEPS         : 1                  
TIMEBASE           : 200_ns/div         
VERT_COUPLING      : DC_50_Ohms         
PROBE_ATT          : 1.0000e+000        
FIXED_VERT_GAIN    : 5_mV/div           
BANDWIDTH_LIMIT    : off                
VERTICAL_VERNIER   : 1.1600e+000        
ACQ_VERT_OFFSET    : 0.0000e+000        
WAVE_SOURCE        : UNKNOWN            
"
0.000189
0.000215
0.000178
0.000176
0.000191
0.000160
0.000202
0.000202
0.000186
0.000228
0.000197
0.000184
0.000223
0.000233
0.000223
0.000207
0.000202
0.000207
0.000197
0.000178
0.000178
0.000189
0.000181
0.000168
0.000194
0.000197
0.000184
0.000202
0.000186
0.000218
0.000220
0.000194
0.000223
0.000199
0.000191
0.000218
0.000210
0.000223
0.000212
0.000194
0.000199
0.000212
0.000202
0.000178
0.000220
0.000202
0.000165
0.000173
0.000186
0.000184
0.000189
0.000181
0.000202
0.000228
0.000197
0.000212
0.000205
0.000176
0.000202
0.000205
0.000205
0.000212
0.000207
0.000191
0.000228
0.000189
0.000197
0.000191
0.000189
0.000184
0.000184
0.000178
0.000226
0.000186
0.000191
0.000207
0.000191
0.000176
0.000191
0.000220
0.000218
0.000236
0.000181
0.000184
0.000197
0.000189
0.000191
0.000220
0.000170
0.000181
0.000186
0.000205
0.000218
0.000207
0.000210
0.000189
0.000197
0.000186
0.000189
0.000184
0.000189
0.000194
0.000186
0.000223
0.000220
0.000173
0.000205
0.000199
0.000165
0.000129
0.000131
0.000147
0.000163
0.000184
0.000176
0.000202
0.000186
0.000191
0.000218
0.000205
0.000210
0.000228
0.000202
0.000189
0.000210
0.000207
0.000202
0.000191
0.000191
0.000184
0.000189
0.000160
0.000160
0.000144
0.000178
0.000189
0.000189
0.000178
0.000176
0.000197
0.000186
0.000220
0.000202
0.000184
0.000205
0.000184
0.000210
0.000181
0.000178
0.000184
0.000205
0.000184
0.000207
0.000199
0.000178
0.000186
0.000210
0.000189
0.000205
0.000199
0.000165
0.000199
0.000170
0.000160
0.000194
0.000184
0.000181
0.000212
0.000207
0.000194
0.000226
0.000181
0.000212
0.000207
0.000178
0.000191
0.000181
0.000157
0.000173
0.000163
0.000157
0.000191
0.000181
0.000184
0.000202
0.000189
0.000181
0.000212
0.000210
0.000218
0.000212
0.000205
0.000218
0.000210
0.000194
0.000207
0.000218
0.000205
0.000212
0.000202
0.000184
0.000181
0.000202
0.000165
0.000191
0.000160
0.000184
0.000226
0.000173
0.000184
0.000197
0.000186
0.000189
0.000178
0.000176
0.000176
0.000189
0.000181
0.000207
0.000207
0.000207
0.000223
0.000197
0.000205
0.000218
0.000218
0.000181
0.000210
0.000199
0.000197
0.000202
0.000197
0.000173
0.000165
0.000197
0.000194
0.000199
0.000155
0.000163
0.000144
0.000173
0.000184
0.000186
0.000178
0.000215
0.000197
0.000220
0.000210
0.000205
0.000186
0.000170
0.000157
0.000186
0.000178
0.000181
0.000178
0.000181
0.000176
0.000210
0.000181
0.000152
0.000160
0.000194
0.000152
0.000160
0.000194
0.000178
0.000194
0.000202
0.000199
0.000202
0.000205
0.000210
0.000202
0.000194
0.000178
0.000176
0.000157
0.000170
0.000168
0.000160
0.000178
0.000168
0.000176
0.000194
0.000191
0.000184
0.000205
0.000199
0.000176
0.000202
0.000202
0.000199
0.000186
0.000186
0.000218
0.000202
0.000199
0.000184
0.000197
0.000186
0.000184
0.000173
0.000184
0.000168
0.000168
0.000168
0.000194
0.000199
0.000197
0.000189
0.000173
0.000197
0.000202
0.000163
0.000155
0.000184
0.000168
0.000184
0.000205
0.000191
0.000212
0.000189
0.000191
0.000186
0.000226
0.000181
0.000168
0.000186
0.000197
0.000176
0.000194
0.000181
0.000191
0.000197
0.000189
0.000212
0.000223
0.000184
0.000191
0.000186
0.000207
0.000194
0.000176
0.000202
0.000189
0.000191
0.000197
0.000184
0.000165
0.000173
0.000170
0.000184
0.000176
0.000170
0.000197
0.000191
0.000207
0.000220
0.000210
0.000210
0.000212
0.000223
0.000207
0.000215
0.000212
0.000205
0.000189
0.000220
0.000199
0.000212
0.000207
0.000184
0.000218
0.000199
0.000189
0.000194
0.000202
0.000191
0.000202
0.000184
0.000205
0.000218
0.000202
0.000207
0.000212
0.000176
0.000176
0.000212
0.000186
0.000199
0.000199
0.000189
0.000202
0.000186
0.000170
0.000202
0.000199
0.000176
0.000168
0.000189
0.000212
0.000210
0.000199
0.000189
0.000197
0.000194
0.000223
0.000254
0.000239
0.000244
0.000178
0.000202
0.000202
0.000184
0.000194
0.000226
0.000207
0.000199
0.000152
0.000194
0.000170
0.000152
0.000142
0.000170
0.000178
0.000173
0.000178
0.000212
0.000207
0.000207
0.000186
0.000207
0.000178
0.000165
0.000236
0.000268
0.000273
0.000233
0.000176
0.000155
0.000102
0.000129
0.000142
0.000152
0.000199
0.000189
0.000199
0.000231
0.000226
0.000181
0.000178
0.000181
0.000121
0.000149
0.000142
0.000184
0.000212
0.000207
0.000226
0.000212
0.000207
0.000273
0.000270
0.000325
0.000317
0.000286
0.000215
0.000176
0.000089
0.000047
0.000100
0.000115
0.000149
0.000155
0.000176
0.000165
0.000152
0.000147
0.000160
0.000163
0.000155
0.000202
0.000207
0.000220
0.000252
0.000254
0.000257
0.000260
0.000270
0.000270
0.000265
0.000241
0.000173
0.000113
0.000081
0.000073
0.000084
0.000076
0.000073
0.000073
0.000118
0.000147
0.000131
0.000155
0.000226
0.000281
0.000346
0.000435
0.000435
0.000425
0.000401
0.000304
0.000268
0.000212
0.000097
0.000052
0.000008
-0.000032
-0.000039
-0.000042
0.000026
0.000121
0.000142
0.000160
0.000194
0.000236
0.000254
0.000278
0.000244
0.000252
0.000223
0.000160
0.000152
0.000123
0.000134
0.000181
0.000231
0.000220
0.000181
0.000220
0.000205
0.000252
0.000291
0.000275
0.000310
0.000268
0.000257
0.000218
0.000184
0.000189
0.000176
0.000181
0.000131
0.000100
0.000094
0.000123
0.000100
-0.000018
-0.000213
-0.000596
-0.001378
-0.002611
-0.004518
-0.007113
-0.010406
-0.014405
-0.018734
-0.023055
-0.027274
-0.030874
-0.033459
-0.035217
-0.036513
-0.037520
-0.037914
-0.037982
-0.038092
-0.038124
-0.037948
-0.037631
-0.037171
-0.036405
-0.035537
-0.034658
-0.033795
-0.032892
-0.032039
-0.031040
-0.029733
-0.028460
-0.027151
-0.025852
-0.024564
-0.023444
-0.022478
-0.021528
-0.020618
-0.019839
-0.019185
-0.018553
-0.018086
-0.017569
-0.017078
-0.016585
-0.016037
-0.015504
-0.014916
-0.014365
-0.013862
-0.013620
-0.013434
-0.013363
-0.013492
-0.013539
-0.013618
-0.013686
-0.013788
-0.014048
-0.014281
-0.014507
-0.014651
-0.014570
-0.014455
-0.014384
-0.014281
-0.014066
-0.013940
-0.013972
-0.013833
-0.013534
-0.013311
-0.013127
-0.012875
-0.012610
-0.012434
-0.012266
-0.012043
-0.011765
-0.011466
-0.011125
-0.010844
-0.010566
-0.010338
-0.009986
-0.009535
-0.009183
-0.008842
-0.008559
-0.008380
-0.008241
-0.008003
-0.007777
-0.007551
-0.007250
-0.007055
-0.006906
-0.006751
-0.006704
-0.006596
-0.006468
-0.006321
-0.006229
-0.006187
-0.006140
-0.006106
-0.006103
-0.006119
-0.006135
-0.006200
-0.006268
-0.006289
-0.006271
-0.006200
-0.006119
-0.006051
-0.005995
-0.005967
-0.005911
-0.005788
-0.005709
-0.005675
-0.005625
-0.005528
-0.005429
-0.005355
-0.005216
-0.005043
-0.005019
-0.005048
-0.005025
-0.004912
-0.004807
-0.004702
-0.004505
-0.004329
-0.004185
-0.004125
-0.004222
-0.004335
-0.004321
-0.004282
-0.004198
-0.004035
-0.003836
-0.003613
-0.003442
-0.003348
-0.003269
-0.003201
-0.003141
-0.002949
-0.002800
-0.002745
-0.002637
-0.002587
-0.002608
-0.002713
-0.002860
-0.003004
-0.003151
-0.003259
-0.003306
-0.003309
-0.003327
-0.003340
-0.003395
-0.003406
-0.003427
-0.003427
-0.003429
-0.003359
-0.003251
-0.003164
-0.003065
-0.003023
-0.002949
-0.002910
-0.002933
-0.002947
-0.002981
-0.002994
-0.002857
-0.002794
-0.002713
-0.002605
-0.002432
-0.002309
-0.002259
-0.002204
-0.002102
-0.001960
-0.001860
-0.001897
-0.001863
-0.001845
-0.001892
-0.001947
-0.002010
-0.002110
-0.002175
-0.002230
-0.002207
-0.002081
-0.001952
-0.001829
-0.001774
-0.001761
-0.001737
-0.001729
-0.001737
-0.001729
-0.001750
-0.001845
-0.002039
-0.002194
-0.002278
-0.002330
-0.002361
-0.002312
-0.002257
-0.002183
-0.002062
-0.001879
-0.001692
-0.001527
-0.001422
-0.001446
-0.001464
-0.001580
-0.001671
-0.001719
-0.001711
-0.001695
-0.001685
-0.001679
-0.001595
-0.001553
-0.001535
-0.001483
-0.001459
-0.001469
-0.001427
-0.001357
-0.001299
-0.001291
-0.001220
-0.001275
-0.001291
-0.001291
-0.001301
-0.001294
-0.001278
-0.001233
-0.001275
-0.001273
-0.001280
-0.001278
-0.001301
-0.001330
-0.001294
-0.001333
-0.001375
-0.001409
-0.001414
-0.001448
-0.001467
-0.001488
-0.001522
-0.001488
-0.001477
-0.001425
-0.001354
-0.001270
-0.001197
-0.001160
-0.001113
-0.001081
-0.001099
-0.001097
-0.001084
-0.001057
-0.001055
-0.001052
-0.001029
-0.001000
-0.000994
-0.000953
-0.000840
-0.000769
-0.000693
-0.000572
-0.000546
-0.000533
-0.000522
-0.000546
-0.000619
-0.000659
-0.000674
-0.000777
-0.000876
-0.000934
-0.000958
-0.000973
-0.001005
-0.000984
-0.000971
-0.000987
-0.000934
-0.000903
-0.000968
-0.001010
-0.000992
-0.001005
-0.000945
-0.000924
-0.000842
-0.000834
-0.000879
-0.000879
-0.000903
-0.000929
-0.000932
-0.000884
-0.000824
-0.000816
-0.000753
-0.000748
-0.000727
-0.000769
-0.000795
-0.000840
-0.000876
-0.000911
-0.000882
-0.000887
-0.000863
-0.000850
-0.000869
-0.000821
-0.000758
-0.000701
-0.000585
-0.000554
-0.000541
-0.000546
-0.000562
-0.000583
-0.000661
-0.000669
-0.000695
-0.000690
-0.000706
-0.000745
-0.000792
-0.000871
-0.000858
-0.000853
-0.000866
-0.000863
-0.000803
-0.000764
-0.000722
-0.000701
-0.000698
-0.000651
-0.000661
-0.000656
-0.000651
-0.000648
-0.000667
-0.000632
-0.000653
-0.000701
-0.000716
-0.000664
-0.000646
-0.000585
-0.000541
-0.000480
-0.000438
-0.000407
-0.000422
-0.000464
-0.000464
-0.000514
-0.000527
-0.000567
-0.000575
-0.000564
-0.000598
-0.000593
-0.000556
-0.000541
-0.000514
-0.000501
-0.000517
-0.000491
-0.000472
-0.000462
-0.000433
-0.000438
-0.000457
-0.000467
-0.000501
-0.000530
-0.000554
-0.000562
-0.000604
-0.000617
-0.000630
-0.000627
-0.000580
-0.000567
-0.000530
-0.000457
-0.000470
-0.000480
-0.000483
-0.000499
-0.000475
-0.000438
-0.000467
-0.000501
-0.000548
-0.000564
-0.000548
-0.000541
-0.000488
-0.000451
-0.000422
-0.000417
-0.000373
-0.000325
-0.000310
-0.000286
-0.000283
-0.000336
-0.000357
-0.000394
-0.000373
-0.000354
-0.000349
-0.000323
-0.000346
-0.000396
-0.000433
-0.000451
-0.000449
-0.000470
-0.000443
-0.000470
-0.000472
-0.000472
-0.000462
-0.000443
-0.000454
-0.000488
-0.000422
-0.000472
-0.000464
-0.000459
-0.000478
-0.000514
-0.000551
-0.000588
-0.000556
-0.000504
-0.000441
-0.000370
-0.000365
-0.000341
-0.000344
-0.000402
-0.000399
-0.000354
-0.000331
-0.000304
-0.000260
-0.000244
-0.000197
-0.000202
-0.000210
-0.000173
-0.000197
-0.000281
-0.000323
-0.000341
-0.000396
-0.000409
-0.000433
-0.000417
-0.000394
-0.000386
-0.000402
-0.000365
-0.000362
-0.000362
-0.000323
-0.000315
-0.000291
-0.000310
-0.000299
-0.000278
-0.000304
-0.000344
-0.000333
-0.000354
-0.000388
-0.000365
-0.000341
-0.000399
-0.000399
-0.000386
-0.000399
-0.000370
-0.000370
-0.000339
-0.000304
-0.000270
-0.000228
-0.000186
-0.000210
-0.000189
-0.000194
-0.000231
-0.000215
-0.000210
-0.000281
-0.000268
-0.000278
-0.000360
-0.000349
-0.000352
-0.000346
-0.000325
-0.000262
-0.000252
-0.000226
-0.000218
-0.000194
-0.000231
-0.000255
-0.000262
-0.000231
-0.000215
-0.000244
-0.000234
-0.000244
-0.000260
-0.000218
-0.000234
-0.000255
-0.000247
-0.000310
-0.000265
-0.000252
-0.000278
-0.000283
-0.000312
-0.000325
-0.000331
-0.000312
-0.000257
-0.000276
-0.000260
-0.000249
-0.000239
-0.000255
-0.000210
-0.000202
-0.000207
-0.000220
-0.000241
-0.000244
-0.000234
-0.000239
-0.000223
-0.000202
-0.000210
-0.000215
-0.000202
-0.000205
-0.000226
-0.000241
-0.000270
-0.000273
-0.000265
-0.000239
-0.000226
-0.000194
-0.000205
-0.000184
-0.000165
-0.000184
-0.000205
-0.000247
-0.000325
-0.000354
-0.000412
-0.000433
-0.000402
-0.000425
-0.000428
-0.000373
-0.000302
-0.000257
-0.000234
-0.000199
-0.000173
-0.000152
-0.000181
-0.000189
-0.000163
-0.000192
-0.000189
-0.000189
-0.000192
-0.000210
-0.000234
-0.000276
-0.000239
-0.000244
-0.000239
-0.000239
-0.000247
-0.000255
-0.000289
-0.000270
-0.000331
-0.000346
-0.000375
-0.000425
-0.000378
-0.000370
-0.000323
-0.000265
-0.000223
-0.000147
-0.000126
-0.000074
-0.000063
-0.000076
-0.000105
-0.000142
-0.000181
-0.000202
-0.000234
-0.000289
-0.000291
-0.000315
-0.000365
-0.000365
-0.000310
-0.000278
-0.000262
-0.000255
-0.000262
-0.000281
-0.000265
-0.000220
-0.000165
-0.000129
-0.000084
-0.000066
-0.000087
-0.000113
-0.000142
-0.000213
-0.000239
-0.000231
-0.000241
-0.000239
-0.000197
-0.000194
-0.000171
-0.000139
-0.000160
-0.000113
-0.000152
-0.000160
-0.000150
-0.000152
-0.000199
-0.000205
-0.000234
-0.000252
-0.000210
-0.000215
-0.000252
-0.000236
-0.000262
-0.000270
-0.000289
-0.000325
-0.000336
-0.000325
-0.000341
-0.000312
-0.000294
-0.000283
-0.000207
-0.000157
-0.000147
-0.000113
-0.000097
-0.000092
-0.000079
-0.000076
-0.000097
-0.000100
-0.000113
-0.000152
-0.000155
-0.000144
-0.000171
-0.000184
-0.000194
-0.000165
-0.000168
-0.000147
-0.000116
-0.000150
-0.000157
-0.000142
-0.000192
-0.000176
-0.000139
-0.000160
-0.000202
-0.000189
-0.000186
-0.000168
-0.000134
-0.000139
-0.000205
-0.000210
-0.000268
-0.000302
-0.000276
-0.000262
-0.000218
-0.000244
-0.000249
-0.000215
-0.000202
-0.000210
-0.000163
-0.000134
-0.000152
-0.000108
-0.000092
-0.000053
-0.000026
-0.000024
-0.000032
-0.000039
-0.000039
-0.000063
-0.000063
-0.000095
-0.000116
-0.000110
-0.000147
-0.000102
-0.000092
-0.000068
-0.000045
-0.000092
-0.000116
-0.000095
-0.000100
-0.000068
-0.000042
-0.000013
0.000024
0.000052
0.000026
-0.000005
-0.000037
-0.000105
-0.000131
-0.000168
-0.000215
-0.000268
-0.000244
-0.000273
-0.000302
-0.000252
-0.000262
-0.000207
-0.000152
-0.000110
-0.000097
-0.000097
-0.000110
-0.000092
-0.000089
-0.000129
-0.000134
-0.000108
-0.000097
-0.000058
-0.000063
-0.000060
-0.000042
-0.000068
-0.000076
-0.000047
-0.000063
-0.000068
-0.000087
-0.000113
-0.000087
-0.000079
-0.000076
-0.000026
-0.000021
-0.000042
-0.000029
-0.000063
-0.000060
-0.000071
-0.000089
-0.000095
-0.000102
-0.000108
-0.000095
-0.000129
-0.000142
-0.000126
-0.000150
-0.000116
-0.000068
-0.000066
-0.000071
-0.000060
-0.000047
-0.000058
-0.000021
-0.000003
0.000018
0.000016
-0.000005
0.000029
0.000029
-0.000037
-0.000021
-0.000021
-0.000055
-0.000066
-0.000105
-0.000126
-0.000081
-0.000108
-0.000076
-0.000081
-0.000108
-0.000105
-0.000126
-0.000116
-0.000134
-0.000113
-0.000142
-0.000113
-0.000100
-0.000081
-0.000037
-0.000000
-0.000042
-0.000050
-0.000032
-0.000045
-0.000060
-0.000089
-0.000102
-0.000087
-0.000139
-0.000150
-0.000129
-0.000129
-0.000155
-0.000155
-0.000163
-0.000129
-0.000131
-0.000168
-0.000118
-0.000121
-0.000105
-0.000071
-0.000037
-0.000013
-0.000016
-0.000000
-0.000029
-0.000013
-0.000058
-0.000068
-0.000047
-0.000079
-0.000084
-0.000079
-0.000100
-0.000092
-0.000081
-0.000092
-0.000037
-0.000011
-0.000011
0.000024
0.000016
0.000010
0.000010
-0.000003
-0.000011
-0.000000
-0.000039
-0.000087
-0.000071
-0.000134
-0.000118
-0.000084
-0.000068
-0.000102
-0.000108
-0.000089
-0.000074
-0.000071
-0.000074
-0.000055
-0.000074
-0.000087
-0.000076
-0.000079
-0.000071
-0.000068
-0.000076
-0.000089
-0.000076
-0.000102
-0.000102
-0.000092
-0.000134
-0.000147
-0.000136
-0.000129
-0.000147
-0.000110
-0.000126
-0.000108
-0.000092
-0.000113
-0.000076
-0.000076
-0.000081
-0.000047
-0.000029
-0.000000
0.000008
0.000037
0.000034
0.000055
0.000024
-0.000005
-0.000011
-0.000060
-0.000032
-0.000053
-0.000074
-0.000018
-0.000037
-0.000032
-0.000047
-0.000063
-0.000079
-0.000018
-0.000068
-0.000095
-0.000053
-0.000084
-0.000081
-0.000066
-0.000037
-0.000021
-0.000034
-0.000042
-0.000026
-0.000029
-0.000060
-0.000050
-0.000032
-0.000087
-0.000047
-0.000081
-0.000092
-0.000123
-0.000126
-0.000142
-0.000157
-0.000110
-0.000071
-0.000068
-0.000047
-0.000011
-0.000003
0.000008
0.000066
0.000052
0.000052
0.000068
0.000102
0.000063
0.000063
0.000042
-0.000024
-0.000018
-0.000037
-0.000042
-0.000024
-0.000016
-0.000034
-0.000055
-0.000029
-0.000011
-0.000024
-0.000029
0.000026
-0.000016
-0.000045
-0.000076
-0.000047
-0.000068
-0.000068
-0.000053
-0.000087
-0.000053
-0.000071
-0.000066
-0.000016
0.000005
-0.000003
-0.000005
-0.000008
0.000008
-0.000018
-0.000011
-0.000039
-0.000003
-0.000005
0.000010
0.000005
-0.000026
-0.000000
-0.000008
0.000018
0.000016
0.000037
-0.000016
-0.000042
-0.000081
-0.000102
-0.000100
-0.000118
-0.000092
-0.000058
-0.000026
-0.000005
0.000010
-0.000005
-0.000000
0.000016
0.000013
0.000031
0.000047
0.000052
0.000066
0.000089
0.000060
0.000026
0.000016
-0.000029
-0.000071
-0.000058
-0.000081
-0.000074
-0.000097
-0.000084
-0.000024
-0.000047
-0.000024
-0.000013
-0.000034
-0.000021
0.000018
0.000013
0.000047
0.000021
0.000024
-0.000000
0.000003
0.000008
0.000013
0.000010
0.000008
0.000013
0.000005
0.000018
0.000031
0.000037
0.000050
0.000029
0.000018
-0.000013
-0.000039
-0.000042
-0.000026
0.000031
0.000008
-0.000003
-0.000000
-0.000000
0.000008
0.000016
0.000003
-0.000013
-0.000039
-0.000045
-0.000037
-0.000039
-0.000021
0.000010
0.000010
-0.000005
0.000010
-0.000011
-0.000011
-0.000039
-0.000039
-0.000063
-0.000068
-0.000016
-0.000034
-0.000018
0.000042
0.000055
0.000026
0.000042
0.000076
0.000071
0.000060
0.000087
0.000052
0.000037
0.000026
0.000018
0.000042
0.000024
-0.000008
-0.000037
-0.000026
-0.000037
-0.000039
-0.000003
-0.000011
0.000013
0.000010
-0.000018
-0.000005
-0.000055
-0.000005
-0.000034
-0.000000
-0.000024
-0.000011
-0.000016
-0.000021
-0.000032
-0.000050
-0.000053
-0.000045
-0.000021
-0.000029
0.000010
0.000060
0.000052
0.000050
0.000055
0.000021
0.000031
0.000005
0.000029
0.000003
-0.000042
-0.000024
-0.000018
-0.000005
0.000021
0.000013
0.000016
0.000039
0.000031
0.000029
0.000066
0.000073
0.000073
0.000063
0.000105
0.000102
0.000115
0.000063
0.000058
0.000039
0.000016
0.000008
-0.000024
-0.000029
-0.000024
-0.000018
-0.000042
-0.000037
-0.000042
-0.000047
0.000008
-0.000005
-0.000024
-0.000021
-0.000021
-0.000045
-0.000039
-0.000034
-0.000018
0.000013
0.000008
0.000003
0.000010
0.000008
0.000037
0.000018
0.000026
0.000024
0.000029
0.000024
-0.000008
0.000031
0.000021
0.000010
0.000031
0.000034
0.000013
0.000037
0.000016
0.000031
0.000024
-0.000003
-0.000016
-0.000003
-0.000005
-0.000024
-0.000034
-0.000018
-0.000016
-0.000024
-0.000032
-0.000021
-0.000011
0.000024
0.000005
0.000013
0.000029
0.000052
0.000058
0.000071
0.000063
0.000050
0.000037
0.000013
-0.000003
0.000008
0.000005
0.000034
0.000024
-0.000018
-0.000011
-0.000050
-0.000068
-0.000063
-0.000055
-0.000018
-0.000021
-0.000008
0.000013
0.000010
0.000026
0.000037
0.000034
0.000045
0.000055
0.000055
0.000066
0.000058
0.000031
0.000018
-0.000011
0.000016
0.000037
0.000013
0.000050
0.000071
0.000066
0.000071
0.000050
0.000052
0.000008
0.000005
-0.000021
-0.000000
0.000039
0.000039
0.000034
0.000066
0.000076
0.000034
0.000055
0.000047
0.000063
0.000050
0.000026
0.000050
0.000018
-0.000000
0.000016
0.000034
-0.000000
-0.000011
-0.000018
-0.000016
0.000013
0.000008
0.000008
0.000021
0.000047
0.000058
0.000063
0.000039
-0.000005
-0.000018
0.000008
0.000010
0.000037
0.000058
0.000076
0.000094
0.000105
0.000115
0.000071
0.000084
0.000084
0.000079
0.000084
0.000102
0.000060
0.000073
0.000076
0.000081
0.000071
0.000047
0.000055
0.000042
0.000097
0.000055
0.000060
0.000042
0.000042
0.000060
0.000066
0.000052
0.000016
0.000029
0.000055
0.000050
0.000073
0.000066
0.000052
0.000081
0.000045
0.000052
0.000076
0.000060
0.000045
0.000047
0.000058
0.000087
0.000076
0.000042
0.000079
0.000071
0.000055
0.000045
0.000024
0.000008
0.000058
0.000063
0.000073
0.000087
0.000089
0.000110
0.000097
0.000144
0.000144
0.000113
0.000118
0.000110
0.000100
0.000102
0.000094
0.000050
0.000081
0.000052
0.000063
0.000066
0.000066
0.000068
0.000066
0.000055
0.000084
0.000071
0.000076
0.000105
0.000084
0.000094
0.000108
0.000081
0.000094
0.000079
0.000039
0.000037
0.000042
0.000003
-0.000005
0.000003
0.000063
0.000008
0.000039
0.000029
0.000010
0.000066
0.000037
0.000052
0.000008
-0.000003
0.000039
0.000010
0.000029
0.000066
0.000063
0.000087
0.000100
0.000110
0.000136
0.000129
0.000121
0.000094
0.000089
0.000079
0.000102
0.000058
0.000079
0.000058
0.000060
0.000050
0.000060
0.000060
0.000055
0.000097
0.000076
0.000073
0.000108
0.000089
0.000068
0.000068
0.000037
0.000042
0.000042
0.000045
0.000021
0.000013
0.000058
0.000031
0.000050
0.000055
0.000071
0.000031
0.000026
0.000039
0.000039
0.000024
0.000031
0.000063
0.000050
0.000021
0.000079
0.000079
0.000087
0.000087
0.000063
0.000063
0.000052
0.000052
0.000016
-0.000003
0.000010
-0.000003
-0.000024
0.000018
0.000018
-0.000005
0.000031
0.000034
0.000050
0.000045
0.000050
0.000042
0.000068
0.000060
0.000066
0.000066
0.000055
0.000073
0.000060
0.000110
0.000139
0.000100
0.000079
0.000068
0.000010
-0.000000
0.000026
0.000055
0.000031
0.000055
0.000097
0.000063
0.000060
0.000050
0.000071
0.000084
0.000076
0.000084
0.000073
0.000076
0.000087
0.000110
0.000097
0.000115
0.000105
0.000113
0.000126
0.000113
0.000087
0.000068
0.000100
0.000087
0.000081
0.000094
0.000097
0.000066
0.000063
0.000034
0.000073
0.000039
0.000045
0.000045
0.000047
0.000050
0.000084
0.000108
0.000097
0.000134
0.000129
0.000081
0.000079
0.000052
0.000052
0.000058
0.000039
0.000039
0.000055
0.000029
0.000047
0.000063
0.000113
0.000105
0.000102
0.000108
0.000092
0.000084
0.000084
0.000094
0.000068
0.000052
0.000050
0.000039
0.000016
-0.000026
-0.000045
-0.000026
-0.000003
0.000034
0.000055
0.000045
0.000037
0.000024
0.000037
0.000050
0.000081
0.000039
0.000068
0.000063
0.000055
0.000076
0.000031
0.000060
0.000045
0.000034
0.000063
0.000055
0.000055
0.000042
0.000031
0.000016
0.000047
0.000076
0.000058
0.000089
0.000081
0.000097
0.000071
0.000073
0.000092
0.000113
0.000157
0.000147
0.000110
0.000108
0.000108
0.000115
0.000076
0.000016
0.000013
-0.000032
-0.000000
0.000026
0.000031
0.000066
0.000102
0.000097
0.000147
0.000118
0.000115
0.000144
0.000118
0.000113
0.000092
0.000079
0.000105
0.000105
0.000110
0.000087
0.000097
0.000055
0.000058
0.000092
0.000068
0.000058
0.000110
0.000094
0.000108
0.000139
0.000118
0.000121
0.000142
0.000126
0.000134
0.000102
0.000113
0.000126
0.000113
0.000113
0.000142
0.000149
0.000115
0.000102
0.000105
0.000060
0.000079
0.000087
0.000094
0.000092
0.000105
0.000108
0.000094
0.000094
0.000087
0.000087
0.000055
0.000066
0.000034
0.000089
0.000105
0.000089
0.000115
0.000100
0.000094
0.000087
0.000118
0.000118
0.000089
0.000113
0.000123
0.000113
0.000092
0.000097
0.000063
0.000034
0.000024
0.000016
0.000010
0.000052
0.000097
0.000102
0.000110
0.000108
0.000118
0.000123
0.000118
0.000094
0.000052
0.000052
0.000024
0.000063
0.000031
0.000018
0.000018
0.000034
0.000073
0.000058
0.000060
0.000094
0.000087
0.000081
0.000100
0.000139
0.000084
0.000084
0.000089
0.000071
0.000105
0.000060
0.000108
0.000102
0.000100
0.000092
0.000100
0.000113
0.000089
0.000097
0.000060
0.000063
0.000079
0.000045
0.000066
0.000073
0.000066
0.000058
0.000084
0.000094
0.000092
0.000100
0.000170
0.000115
0.000144
0.000147
0.000131
0.000134
0.000092
0.000089
0.000050
0.000058
0.000081
0.000071
0.000060
0.000066
0.000060
0.000068
0.000073
0.000092
0.000076
0.000097
0.000115
0.000081
0.000058
0.000058
0.000042
0.000047
0.000060
0.000079
0.000105
0.000115
0.000089
0.000081
0.000060
0.000060
0.000047
0.000058
0.000066
0.000076
0.000094
0.000076
0.000079
0.000081
0.000060
0.000094
0.000094
0.000110
0.000102
0.000131
0.000102
0.000105
0.000108
0.000097
0.000092
0.000110
0.000110
0.000092
0.000108
0.000105
0.000084
0.000071
0.000094
0.000113
0.000134
0.000102
0.000118
0.000118
0.000118
0.000123
0.000136
0.000115
0.000144
0.000123
0.000050
0.000037
-0.000011
-0.000000
0.000018
0.000071
0.000073
0.000050
0.000058
0.000079
0.000094
0.000105
0.000108
0.000121
0.000144
0.000149
0.000129
0.000118
0.000100
0.000100
0.000110
0.000092
0.000118
0.000126
0.000121
0.000102
0.000108
0.000110
0.000100
0.000105
0.000129
0.000094
0.000076
0.000094
0.000123
0.000123
0.000118
0.000142
0.000121
0.000121
0.000115
0.000094
0.000094
0.000066
0.000081
0.000073
0.000055
0.000068
0.000066
0.000097
0.000094
0.000100
0.000100
0.000110
0.000092
0.000079
0.000105
0.000105
0.000134
0.000121
0.000102
0.000129
0.000102
0.000129
0.000142
0.000136
0.000142
0.000110
0.000108
0.000100
0.000092
0.000100
0.000087
0.000110
0.000110
0.000089
0.000089
0.000076
0.000087
0.000068
0.000081
0.000094
0.000131
0.000149
0.000197
0.000220
0.000168
0.000165
0.000157
0.000118
0.000108
0.000068
0.000097
0.000063
0.000050
0.000081
0.000092
0.000076
0.000105
0.000113
0.000102
0.000129
0.000108
0.000089
0.000121
0.000087
0.000060
0.000066
0.000026
0.000029
0.000024
0.000066
0.000102
0.000089
0.000102
0.000105
0.000100
0.000081
0.000102
0.000066
0.000094
0.000066
0.000084
0.000076
0.000105
0.000108
0.000102
0.000123
0.000147
0.000160
0.000165
0.000142
0.000147
0.000173
0.000157
0.000178
0.000194
0.000163
0.000181
0.000168
0.000144
0.000123
0.000102
0.000123
0.000129
0.000118
0.000134
0.000129
0.000110
0.000105
0.000081
0.000084
0.000045
0.000052
0.000068
0.000087
0.000092
0.000118
0.000129
0.000134
0.000136
0.000149
0.000165
0.000176
0.000173
0.000134
0.000163
0.000110
0.000066
0.000047
0.000037
0.000029
0.000005
0.000063
0.000073
0.000055
0.000081
0.000081
0.000110
0.000118
0.000121
0.000131
0.000131
0.000149
0.000142
0.000118
0.000126
0.000139
0.000110
0.000108
0.000121
0.000121
0.000110
0.000100
0.000113
0.000097
0.000102
0.000129
0.000123
0.000134
0.000134
0.000136
0.000149
0.000144
0.000152
0.000118
0.000134
0.000134
0.000118
0.000092
0.000094
0.000068
0.000034
0.000081
0.000089
0.000134
0.000131
0.000149
0.000129
0.000113
0.000129
0.000110
0.000094
0.000115
0.000134
0.000115
0.000139
0.000139
0.000134
0.000149
0.000118
0.000100
0.000084
0.000092
0.000089
0.000113
0.000136
0.000123
0.000113
0.000144
0.000129
0.000121
0.000129
0.000147
0.000108
0.000142
0.000152
0.000142
0.000157
0.000165
0.000168
0.000170
0.000144
0.000126
0.000094
0.000123
0.000126
0.000105
0.000121
0.000094
0.000110
0.000113
0.000097
0.000113
0.000108
0.000068
0.000113
0.000115
0.000108
0.000110
0.000113
0.000131
0.000142
0.000173
0.000139
0.000168
0.000139
0.000152
0.000152
0.000163
0.000121
0.000110
0.000102
0.000110
0.000110
0.000097
0.000134
0.000110
0.000092
0.000144
0.000123
0.000134
0.000100
0.000094
0.000136
0.000121
0.000123
0.000160
0.000152
0.000139
0.000126
0.000123
0.000118
0.000134
0.000129
0.000152
0.000149
0.000152
0.000144
0.000123
0.000110
0.000126
0.000121
0.000073
0.000102
0.000110
0.000094
0.000108
0.000105
0.000092
0.000108
0.000108
0.000126
0.000155
0.000170
0.000170
0.000189
0.000181
0.000147
0.000157
0.000155
0.000152
0.000152
0.000144
0.000089
0.000084
0.000079
0.000102
0.000081
0.000102
0.000121
0.000115
0.000100
0.000108
0.000100
0.000102
0.000115
0.000094
0.000094
0.000094
0.000123
0.000121
0.000113
0.000147
0.000144
0.000134
0.000139
0.000129
0.000142
0.000126
0.000149
0.000142
0.000121
0.000108
0.000097
0.000113
0.000129
0.000113
0.000121
0.000113
0.000113
0.000115
0.000157
0.000136
0.000142
0.000123
0.000113
0.000118
0.000134
0.000136
0.000115
0.000147
0.000123
0.000139
0.000131
0.000118
0.000131
0.000089
0.000105
0.000134
0.000110
0.000126
0.000126
0.000123
0.000118
0.000142
0.000160
0.000160
0.000157
0.000149
0.000139
0.000147
0.000115
0.000131
0.000115
0.000118
0.000139
0.000134
0.000160
0.000165
0.000147
0.000142
0.000123
0.000115
0.000139
0.000126
0.000136
0.000165
0.000136
0.000157
0.000165
0.000142
0.000160
0.000152
0.000155
0.000139
0.000149
0.000147
0.000152
0.000144
0.000170
0.000142
0.000149
0.000147
0.000123
0.000129
0.000121
0.000110
0.000139
0.000126
0.000139
0.000136
0.000097
0.000123
0.000105
0.000076
0.000066
0.000084
0.000092
0.000081
0.000110
0.000118
0.000102
0.000131
0.000123
0.000129
0.000134
0.000108
0.000131
0.000131
0.000142
0.000108
0.000100
0.000110
0.000100
0.000110
0.000147
0.000139
0.000134
0.000157
0.000163
0.000170
0.000160
0.000139
0.000136
0.000142
0.000134
0.000139
0.000131
0.000144
0.000134
0.000131
0.000147
0.000129
0.000105
0.000108
0.000092
0.000073
0.000094
0.000089
0.000087
0.000097
0.000081
0.000089
0.000084
0.000079
0.000105
0.000094
0.000108
0.000087
0.000110
0.000113
0.000094
0.000100
0.000142
0.000134
0.000129
0.000123
0.000079
0.000105
0.000094
0.000110
0.000115
0.000134
0.000136
0.000165
0.000144
0.000194
0.000199
0.000205
0.000186
0.000189
0.000147
0.000139
0.000131
0.000142
0.000149
0.000136
0.000118
0.000097
0.000102
0.000087
0.000094
0.000129
0.000136
0.000131
0.000126
0.000123
0.000131
0.000097
0.000131
0.000097
0.000079
0.000118
0.000115
0.000105
0.000129
0.000131
0.000121
0.000142
0.000126
0.000157
0.000168
0.000178
0.000176
0.000144
0.000160
0.000136
0.000100
0.000123
0.000118
0.000108
0.000131
0.000147
0.000149
0.000152
0.000142
0.000149
0.000144
0.000139
0.000152
0.000157
0.000157
0.000152
0.000149
0.000149
0.000121
0.000102
0.000110
0.000081
0.000113
0.000108
0.000113
0.000108
0.000163
0.000168
0.000168
0.000176
0.000134
0.000134
0.000115
0.000115
0.000131
0.000123
0.000134
0.000126
0.000110
0.000134
0.000129
0.000108
0.000134
0.000134
0.000118
0.000144
0.000100
0.000097
0.000089
0.000076
0.000102
0.000092
0.000108
0.000105
0.000157
0.000189
0.000149
0.000160
0.000160
0.000155
0.000160
0.000168
0.000186
0.000197
0.000163
0.000168
0.000147
0.000136
0.000134
0.000155
0.000144
0.000136
0.000165
0.000152
0.000165
0.000149
0.000149
0.000134
0.000129
0.000157
0.000139
0.000157
0.000147
0.000144
0.000121
0.000134
0.000113
0.000123
0.000115
0.000102
0.000110
0.000079
0.000037
0.000050
0.000037
0.000042
0.000076
0.000100
0.000094
0.000123
0.000147
0.000152
0.000147
0.000168
0.000176
0.000178
0.000176
0.000157
0.000163
0.000170
0.000149
0.000126
0.000121
0.000139
0.000105
0.000123
0.000123
0.000131
0.000129
0.000118
0.000118
0.000110
0.000102
0.000123
0.000113
0.000118
0.000123
0.000113
0.000144
0.000157
0.000165
0.000152
0.000147
0.000155
0.000160
0.000152
0.000131
0.000118
0.000097
0.000089
0.000105
0.000087
0.000079
0.000105
0.000126
0.000136
0.000131
0.000184
0.000157
0.000173
0.000178
0.000176
0.000147
0.000149
0.000160
0.000139
0.000123
0.000129
0.000113
0.000108
0.000089
0.000097
0.000134
0.000136
0.000134
0.000168
0.000142
0.000163
0.000163
0.000165
0.000163
0.000139
0.000144
0.000168
0.000160
0.000126
0.000152
0.000144
0.000123
0.000134
0.000136
0.000123
0.000129
0.000152
0.000113
0.000126
0.000129
0.000121
0.000118
0.000121
0.000136
0.000155
0.000155
0.000160
0.000186
0.000173
0.000176
0.000160
0.000139
0.000149
0.000118
0.000097
0.000105
0.000118
0.000097
0.000102
0.000108
0.000102
0.000142
0.000155
0.000121
0.000157
0.000144
0.000126
0.000126
0.000131
0.000157
0.000136
0.000131
0.000144
0.000123
0.000129
0.000126
0.000113
0.000123
0.000136
0.000118
0.000110
0.000121
0.000136
0.000102
0.000113
0.000102
0.000113
0.000105
0.000121
0.000129
0.000115
0.000123
0.000115
0.000113
0.000147
0.000142
0.000178
0.000142
0.000173
0.000173
0.000136
0.000131
0.000105
0.000092
0.000097
0.000068
0.000087
0.000063
0.000071
0.000115
0.000123
0.000102
0.000136
0.000144
0.000110
0.000102
0.000142
0.000136
0.000147
0.000149
0.000139
0.000123
0.000110
0.000094
0.000089
0.000100
0.000115
0.000123
0.000165
0.000108
0.000113
0.000071
0.000097
0.000100
0.000113
0.000113
0.000126
0.000131
0.000118
0.000147
0.000136
0.000136
0.000118
0.000094
0.000108
0.000129
0.000144
0.000152
0.000194
0.000144
0.000194
0.000181
0.000178
0.000189
0.000170
0.000155
0.000181
0.000142
0.000152
0.000173
0.000160
0.000160
0.000163
0.000157
0.000184
0.000176
0.000165
0.000139
0.000139
0.000157
0.000123
0.000108
0.000131
0.000115
0.000126
0.000131
0.000118
0.000123
0.000142
0.000121
0.000157
0.000160
0.000170
0.000176
0.000134
0.000142
0.000173
0.000165
0.000176
0.000210
0.000170
0.000168
0.000181
0.000163
0.000155
0.000147
0.000134
0.000121
0.000134
0.000097
0.000094
0.000123
0.000144
0.000157
0.000173
0.000181
0.000168
0.000163
0.000186
0.000189
0.000199
0.000181
0.000186
0.000186
0.000194
0.000202
0.000157
0.000149
0.000191
0.000170
0.000139
0.000173
0.000165
0.000123
0.000142
0.000152
0.000152
0.000152
0.000144
0.000139
0.000157
0.000144
0.000126
0.000129
0.000134
0.000144
0.000155
0.000149
0.000152
0.000131
0.000118
0.000115
0.000131
0.000087
0.000087
0.000108
0.000115
0.000126
0.000136
0.000155
0.000129
0.000110
0.000126
0.000134
0.000136
0.000176
0.000160
0.000123
0.000160
0.000165
0.000126
0.000173
0.000170
0.000152
0.000134
0.000108
0.000123
0.000123
0.000157
0.000129
0.000152
0.000155
0.000157
0.000173
0.000178
0.000194
0.000165
0.000176
0.000170
0.000168
0.000155
0.000155
0.000194
0.000170
0.000170
0.000170
0.000186
0.000165
0.000163
0.000202
0.000165
0.000152
0.000168
0.000147
0.000170
0.000170
0.000144
0.000134
0.000152
0.000152
0.000136
0.000176
0.000163
0.000170
0.000181
0.000163
0.000181
0.000136
0.000144
0.000176
0.000191
0.000144
0.000157
0.000129
0.000152
0.000121
0.000113
0.000136
0.000126
0.000152
0.000129
0.000142
0.000134
0.000136
0.000155
0.000152
0.000157
0.000168
0.000186
0.000189
0.000191
0.000170
0.000186
0.000207
0.000178
0.000181
0.000184
0.000160
0.000176
0.000160
0.000178
0.000165
0.000155
0.000173
0.000160
0.000139
0.000139
0.000139
0.000121
0.000139
0.000152
0.000170
0.000170
0.000165
0.000163
0.000155
0.000160
0.000136
0.000136
0.000160
0.000155
0.000139
0.000160
0.000152
0.000129
0.000139
0.000157
0.000160
0.000163
0.000186
0.000176
0.000170
0.000168
0.000170
0.000176
0.000191
0.000189
0.000197
0.000223
0.000184
0.000202
0.000189
0.000168
0.000184
0.000149
0.000152
0.000170
0.000149
0.000139
0.000121
0.000102
0.000139
0.000105
0.000076
0.000110
0.000076
0.000084
0.000092
0.000178
0.000186
0.000165
0.000191
0.000176
0.000197
0.000186
0.000165
0.000163
0.000139
0.000157
0.000165
0.000142
0.000142
0.000152
0.000113
0.000118
0.000129
0.000113
0.000121
0.000121
0.000108
0.000139
0.000110
0.000121
0.000160
0.000165
0.000181
0.000176
0.000144
0.000165
0.000165
0.000176
0.000184
0.000165
0.000157
0.000147
0.000170
0.000149
0.000189
0.000163
0.000157
0.000163
0.000178
0.000178
0.000152
0.000149
0.000126
0.000144
0.000160
0.000160
0.000176
0.000157
0.000181
0.000163
0.000136
0.000115
0.000102
0.000108
0.000118
0.000110
0.000142
0.000152
0.000108
0.000147
0.000155
0.000139
0.000115
0.000121
0.000105
0.000165
0.000149
0.000160
0.000134
0.000152
0.000136
0.000155
0.000191
0.000197
0.000199
0.000199
0.000186
0.000181
0.000170
0.000176
0.000160
0.000152
0.000142
0.000160
0.000118
0.000144
0.000152
0.000149
0.000152
0.000157
0.000178
0.000173
0.000184
0.000181
0.000170
0.000176
0.000165
0.000160
0.000160
0.000184
0.000210
0.000189
0.000168
0.000131
0.000126
0.000121
0.000121
0.000126
0.000102
0.000110
0.000081
0.000068
0.000100
0.000121
0.000105
0.000134
0.000142
0.000152
0.000149
0.000163
0.000170
0.000212
0.000218
0.000212
0.000189
0.000199
0.000176
0.000168
0.000142
0.000129
0.000115
0.000087
0.000126
0.000123
0.000126
0.000139
0.000149
0.000163
0.000147
0.000144
0.000186
0.000184
0.000152
0.000178
0.000165
0.000160
0.000197
0.000207
0.000184
0.000207
0.000215
0.000194
0.000176
0.000186
0.000160
0.000157
0.000157
0.000129
0.000131
0.000149
0.000139
0.000118
0.000126
0.000149
0.000134
0.000129
0.000147
0.000131
0.000123
0.000123
0.000147
0.000136
0.000118
0.000129
0.000097
0.000118
0.000092
0.000110
0.000149
0.000142
0.000160
0.000126
0.000123
0.000121
0.000134
0.000144
0.000170
0.000163
0.000168
0.000168
0.000170
0.000157
0.000129
0.000131
0.000110
0.000139
0.000134
0.000165
0.000160
0.000163
0.000136
0.000139
0.000097
0.000105
0.000113
0.000126
0.000115
0.000160
0.000136
0.000168
0.000186
0.000207
0.000199
0.000228
0.000194
0.000194
0.000205
0.000194
0.000215
0.000207
0.000186
0.000205
0.000191
0.000191
0.000184
0.000149
0.000191
0.000173
0.000168
0.000155
0.000163
0.000152
0.000134
0.000134
0.000136
0.000152
0.000139
0.000131
0.000147
0.000160
0.000163
0.000173
0.000173
0.000168
0.000170
0.000173
0.000160
0.000149
0.000144
0.000152
0.000168
0.000144
0.000178
0.000186
0.000163
0.000191
0.000191
0.000168
0.000191
0.000176
0.000163
0.000176
0.000173
0.000160
0.000184
0.000189
0.000184
0.000205
0.000168
0.000157
0.000163
0.000110
0.000131
0.000144
0.000131
0.000149
0.000149
0.000157
0.000178
0.000178
0.000205
0.000181
0.000202
0.000197
0.000197
0.000176
0.000181
0.000173
0.000136
0.000163
0.000147
0.000115
0.000157
0.000170
0.000157
0.000147
0.000147
0.000131
0.000134
0.000136
0.000121
0.000131
0.000134
0.000160
0.000155
0.000160
0.000168
0.000181
0.000194
0.000202
0.000199
0.000191
0.000181
0.000186
0.000170
0.000178
0.000170
0.000173
0.000189
0.000189
0.000173
0.000157
0.000165
0.000139
0.000142
0.000155
0.000160
0.000176
0.000163
0.000197
0.000197
0.000178
0.000202
0.000173
0.000176
0.000184
0.000168
0.000178
0.000168
0.000178
0.000178
0.000178
0.000170
0.000184
0.000152
0.000168
0.000168
0.000165
0.000176
0.000197
0.000186
0.000194
0.000189
0.000202
0.000184
0.000191
0.000215
0.000210
0.000231
0.000228
0.000215
0.000191
0.000165
0.000168
0.000165
0.000149
0.000115
0.000115
0.000094
0.000081
0.000081
0.000068
0.000087
0.000076
0.000097
0.000105
0.000129
0.000165
0.000184
0.000157
0.000189
0.000194
0.000165
0.000168
0.000163
0.000142
0.000136
0.000136
0.000118
0.000149
0.000142
0.000121
0.000115
0.000147
0.000165
0.000168
0.000160
0.000152
0.000163
0.000170
0.000149
0.000186
0.000160
0.000142
0.000134
0.000115
0.000139
0.000129
0.000129
0.000144
0.000173
0.000139
0.000144
0.000142
0.000118
0.000092
0.000134
0.000110
0.000123
0.000144
0.000129
0.000144
0.000134
0.000131
0.000126
0.000136
0.000168
0.000191
0.000194
0.000184
0.000202
0.000173
0.000186
0.000191
0.000142
0.000170
0.000136
0.000139
0.000142
0.000136
0.000142
0.000147
0.000160
0.000168
0.000165
0.000147
0.000126
0.000181
0.000170
0.000226
0.000205
0.000199
0.000202
0.000191
0.000199
0.000186
0.000191
0.000176
0.000155
0.000170
0.000165
0.000160
0.000152
0.000173
0.000147
0.000134
0.000108
0.000092
0.000113
0.000123
0.000142
0.000115
0.000157
0.000165
0.000144
0.000168
0.000189
0.000165
0.000173
0.000170
0.000178
0.000178
0.000157
0.000181
0.000160
0.000155
0.000147
0.000165
0.000168
0.000147
0.000136
0.000157
0.000152
0.000147
0.000160
0.000170
0.000189
0.000205
0.000189
0.000199
0.000212
0.000189
0.000170
0.000168
0.000152
0.000173
0.000115
0.000149
0.000168
0.000142
0.000147
0.000147
0.000142
0.000147
0.000136
0.000136
0.000144
0.000165
0.000160
0.000176
0.000223
0.000212
0.000191
0.000186
0.000176
0.000163
0.000157
0.000157
0.000149
0.000155
0.000163
0.000184
0.000163
0.000163
0.000163
0.000165
0.000176
0.000173
0.000160
0.000181
0.000199
0.000186
0.000176
0.000186
0.000197
0.000189
0.000170
0.000191
0.000191
0.000212
0.000194
0.000191
0.000170
0.000173
0.000160
0.000139
0.000102
0.000131
0.000110
0.000113
0.000129
0.000129
0.000131
0.000126
0.000115
0.000129
0.000118
0.000155
0.000155
0.000136
0.000160
0.000144
0.000129
0.000157
0.000152
0.000129
0.000163
0.000136
0.000142
0.000165
0.000165
0.000126
0.000144
0.000139
0.000105
0.000134
0.000131
0.000181
0.000136
0.000160
0.000160
0.000139
0.000139
0.000149
0.000126
0.000134
0.000126
0.000160
0.000149
0.000170
0.000170
0.000134
0.000139
0.000170
0.000160
0.000157
0.000160
0.000165
0.000129
0.000157
0.000176
0.000155
0.000136
0.000129
0.000129
0.000129
0.000160
0.000134
0.000123
0.000160
0.000139
0.000173
0.000152
0.000168
0.000184
0.000160
0.000155
0.000152
0.000139
0.000136
0.000142
0.000170
0.000144
0.000173
0.000142
0.000157
0.000163
0.000181
0.000170
0.000186
0.000165
0.000184
0.000186
0.000186
0.000176
0.000173
0.000181
0.000157
0.000160
0.000168
0.000157
0.000168
0.000144
0.000163
0.000147
0.000181
0.000173
0.000155
0.000170
0.000176
0.000176
0.000207
0.000205
0.000155
0.000197
0.000168
0.000178
0.000173
0.000165
0.000149
0.000160
0.000170
0.000173
0.000170
0.000157
0.000165
0.000160
0.000144
0.000160
0.000147
0.000155
0.000160
0.000142
0.000142
0.000144
0.000181
0.000149
0.000184
0.000176
0.000147
0.000165
0.000147
0.000149
0.000165
0.000155
0.000152
0.000155
0.000129
0.000157
0.000176
0.000178
0.000165
0.000131
0.000115
0.000094
0.000089
0.000115
0.000094
0.000121
0.000131
0.000155
0.000152
0.000178
0.000181
0.000165
0.000202
0.000194
0.000202
0.000205
0.000202
0.000199
0.000181
0.000165
0.000160
0.000131
0.000163
0.000152
0.000134
0.000113
0.000118
0.000115
0.000123
0.000123
0.000176
0.000178
0.000165
0.000186
0.000194
0.000178
0.000186
0.000207
0.000181
0.000186
0.000160
0.000129
0.000131
0.000115
0.000097
0.000118
0.000155
0.000139
0.000152
0.000129
0.000131
0.000131
0.000126
0.000184
0.000163
0.000163
0.000173
0.000176
0.000176
0.000184
0.000168
0.000168
0.000186
0.000178
0.000165
0.000160
0.000144
0.000173
0.000144
0.000136
0.000129
0.000165
0.000165
0.000178
0.000191
0.000178
0.000186
0.000210
0.000202
0.000202
0.000197
0.000155
0.000139
0.000157
0.000184
0.000144
0.000173
0.000163
0.000168
0.000155
0.000189
0.000157
0.000118
0.000136
0.000134
0.000157
0.000165
0.000184
0.000160
0.000186
0.000199
0.000223
0.000207
0.000207
0.000184
0.000210
0.000194
0.000205
0.000199
0.000155
0.000155
0.000168
0.000144
0.000139
0.000155
0.000176
0.000173
0.000170
0.000173
0.000189
0.000165
0.000168
0.000181
0.000181
0.000176
0.000207
0.000207
0.000239
0.000207
0.000191
0.000186
0.000181
0.000170
0.000163
0.000191
0.000160
0.000165
0.000170
0.000144
0.000157
0.000152
0.000129
0.000136
0.000142
0.000149
0.000147
0.000165
0.000160
0.000191
0.000181
0.000212
0.000191
0.000178
0.000170
0.000157
0.000165
0.000178
0.000152
0.000165
0.000173
0.000157
0.000163
0.000197
0.000147
0.000115
0.000144
0.000110
0.000123
0.000134
0.000139
0.000129
0.000165
0.000168
0.000205
0.000223
0.000197
0.000197
0.000202
0.000181
0.000202
0.000202
0.000178
0.000215
0.000189
0.000163
0.000160
0.000155
0.000155
0.000134
0.000121
0.000097
0.000121
0.000131
0.000129
0.000163
0.000160
0.000152
0.000165
0.000131
0.000152
0.000163
0.000155
0.000147
0.000155
0.000163
0.000189
0.000189
0.000178
0.000186
0.000181
0.000194
0.000165
0.000178
0.000157
0.000194
0.000178
0.000186
0.000197
0.000152
0.000184
0.000173
0.000181
0.000194
0.000212
0.000202
0.000199
0.000176
0.000157
0.000152
0.000115
0.000136
0.000173
0.000155
0.000170
0.000184
0.000139
0.000136
0.000147
0.000152
0.000152
0.000160
0.000139
0.000165
0.000157
0.000142
0.000181
0.000168
0.000170
0.000199
0.000168
0.000184
0.000184
0.000170
0.000139
0.000155
0.000170
0.000178
0.000165
0.000147
0.000160
0.000173
0.000126
0.000199
0.000157
0.000136
0.000176
0.000144
0.000155
0.000165
0.000176
0.000181
0.000191
0.000186
0.000181
0.000207
0.000181
0.000184
0.000186
0.000181
0.000202
0.000186
0.000191
0.000215
0.000199
0.000202
0.000189
0.000189
0.000168
0.000215
0.000199
0.000205
0.000215
0.000184
0.000170
0.000181
0.000184
0.000191
0.000207
0.000199
0.000226
0.000199
0.000210
0.000181
0.000173
0.000152
0.000126
0.000147
0.000121
0.000149
0.000100
0.000144
0.000157
0.000144
0.000155
0.000163
0.000181
0.000178
0.000189
0.000186
0.000197
0.000186
0.000181
0.000194
0.000205
0.000184
0.000134
0.000152
0.000157
0.000144
0.000163
0.000142
0.000147
0.000163
0.000152
0.000186
0.000163
0.000186
0.000186
0.000178
0.000163
0.000155
0.000160
0.000178
0.000186
0.000147
0.000160
0.000147
0.000165
0.000189
0.000134
0.000170
0.000168
0.000136
0.000147
0.000123
0.000113
0.000139
0.000144
0.000165
0.000170
0.000168
0.000186
0.000176
0.000160
0.000215
0.000205
0.000202
0.000218
0.000223
0.000218
0.000207
0.000184
0.000197
0.000194
0.000181
0.000163
0.000165
0.000184
0.000178
0.000186
0.000170
0.000157
0.000168
0.000181
0.000178
0.000218
0.000176
0.000170
0.000186
0.000170
0.000176
0.000176
0.000152
0.000152
0.000152
0.000142
0.000134
0.000123
0.000165
0.000142
0.000152
0.000139
0.000168
0.000142
0.000131
0.000136
0.000155
0.000149
0.000163
0.000170
0.000173
0.000168
0.000178
0.000170
0.000191
0.000181
0.000223
0.000170
0.000165
0.000168
0.000144
0.000152
0.000149
0.000155
0.000165
0.000147
0.000160
0.000160
0.000197
0.000186
0.000189
0.000168
0.000191
0.000176
0.000170
0.000181
0.000215
0.000191
0.000184
0.000178
0.000194
0.000157
0.000163
0.000155
0.000160
0.000139
0.000129
0.000144
0.000155
0.000160
0.000152
0.000163
0.000160
0.000173
0.000181
0.000184
0.000199
0.000207
0.000199
0.000168
0.000212
0.000173
0.000207
0.000199
0.000199
0.000215
0.000205
0.000186
0.000176
0.000181
0.000202
0.000189
0.000170
0.000160
0.000155
0.000142
0.000163
0.000139
0.000152
0.000168
0.000197
0.000202
0.000223
0.000218
0.000218
0.000215
0.000205
0.000226
0.000226
0.000199
0.000184
0.000197
0.000176
0.000184
0.000165
0.000157
0.000134
0.000134
0.000126
0.000163
0.000163
0.000152
0.000191
0.000181
0.000207
0.000210
0.000215
0.000226
0.000244
0.000249
0.000207
0.000218
0.000215
0.000136
0.000147
0.000176
0.000142
0.000165
0.000168
0.000184
0.000199
0.000176
0.000202
0.000170
0.000181
0.000160
0.000163
0.000160
0.000152
0.000160
0.000170
0.000184
0.000191
0.000181
0.000178
0.000176
0.000163
0.000136
0.000142
0.000126
0.000131
0.000155
0.000181
0.000168
0.000157
0.000191
0.000186
0.000176
0.000205
0.000218
0.000215
0.000205
0.000199
0.000191
0.000178
0.000149
0.000131
0.000165
0.000160
0.000170
0.000189
0.000168
0.000212
0.000184
0.000176
0.000173
0.000155
0.000155
0.000139
0.000155
0.000170
0.000173
0.000176
0.000184
0.000215
0.000199
0.000205
0.000207
0.000170
0.000173
0.000160
0.000144
0.000113
0.000149
0.000165
0.000134
0.000147
0.000173
0.000191
0.000194
0.000178
0.000163
0.000191
0.000181
0.000152
0.000173
0.000165
0.000173
0.000184
0.000189
0.000199
0.000205
0.000197
0.000181
0.000173
0.000155
0.000165
0.000147
0.000152
0.000160
0.000149
0.000181
0.000199
0.000163
0.000194
0.000165
0.000155
0.000147
0.000155
0.000144
0.000186
0.000197
0.000184
0.000199
0.000194
0.000199
0.000189
0.000186
0.000212
0.000223
0.000181
0.000197
0.000186
0.000184
0.000194
0.000186
0.000197
0.000181
0.000207
0.000194
0.000173
0.000173
0.000176
0.000202
0.000181
0.000184
0.000197
0.000197
0.000210
0.000207
0.000220
0.000197
0.000181
0.000168
0.000181
0.000181
0.000170
0.000165
0.000163
0.000199
0.000199
0.000202
0.000205
0.000178
0.000147
0.000165
0.000163
0.000165
0.000149
0.000155
0.000165
0.000165
0.000176
0.000163
0.000207
0.000191
0.000184
0.000199
0.000191
0.000199
0.000199
0.000157
0.000142
0.000155
0.000163
0.000149
0.000142
0.000149
0.000149
0.000181
0.000178
0.000181
0.000199
0.000173
0.000197
0.000163
0.000184
0.000168
0.000186
0.000160
0.000163
0.000147
0.000131
0.000155
0.000160
0.000152
0.000173
0.000144
0.000173
0.000160
0.000134
0.000147
0.000121
0.000134
0.000149
0.000149
0.000139
0.000170
0.000181
0.000181
0.000155
0.000136
0.000155
0.000152
0.000155
0.000170
0.000199
0.000212
0.000178
0.000163
0.000191
0.000170
0.000191
0.000165
0.000178
0.000176
0.000194
0.000186
0.000202
0.000223
0.000191
0.000202
0.000207
0.000194
0.000205
0.000218
0.000176
0.000178
0.000155
0.000147
0.000160
0.000173
0.000176
0.000189
0.000178
0.000165
0.000157
0.000176
0.000184
0.000168
0.000173
0.000184
0.000186
0.000170
0.000160
0.000163
0.000165
0.000186
0.000173
0.000191
0.000194
0.000202
0.000212
0.000189
0.000189
0.000186
0.000170
0.000173
0.000168
t0(sec) = 0.000000E+0
dt(sec) = 4.000000E-10
F2:INSP "
DESCRIPTOR_NAME    : WAVEDESC           
TEMPLATE_NAME      : LECROY_2_3         
COMM_TYPE          : word               
COMM_ORDER         : HIFIRST            
WAVE_DESCRIPTOR    : 346                
USER_TEXT          : 0                  
RES_DESC1          : 0                  
TRIGTIME_ARRAY     : 0                  
RIS_TIME_ARRAY     : 0                  
RES_ARRAY1         : 0                  
WAVE_ARRAY_1       : 10002              
WAVE_ARRAY_2       : 0                  
RES_ARRAY2         : 0                  
RES_ARRAY3         : 0                  
INSTRUMENT_NAME    : LECROYHDO6104      
INSTRUMENT_NUMBER  : 6308               
TRACE_LABEL        :                    
RESERVED1          : 5001               
RESERVED2          : 0                  
WAVE_ARRAY_COUNT   : 5001               
PNTS_PER_SCREEN    : 5000               
FIRST_VALID_PNT    : 0                  
LAST_VALID_PNT     : 5000               
FIRST_POINT        : 0                  
SPARSING_FACTOR    : 1                  
SEGMENT_INDEX      : 0                  
SUBARRAY_COUNT     : 1                  
SWEEPS_PER_ACQ     : 200                
POINTS_PER_PAIR    : 0                  
PAIR_OFFSET        : 0                  
VERTICAL_GAIN      : 2.6238e-006        
VERTICAL_OFFSET    : 4.2500e-002        
MAX_VALUE          : 3.2512e+004        
MIN_VALUE          : -2.5373e+004       
NOMINAL_BITS       : 16                 
NOM_SUBARRAY_COUNT : 1                  
HORIZ_INTERVAL     : 4.0000e-010        
HORIZ_OFFSET       : -2.00000000e-007   
PIXEL_OFFSET       : -2.00000000e-007   
VERTUNIT           : Unit Name = V
HORUNIT            : Unit Name = S
HORIZ_UNCERTAINTY  : 1.0000e-012        
TRIGGER_TIME       : Date = APR 17, 2024, Time = 19:33:12.105208305
ACQ_DURATION       : 1.0199e+001        
RECORD_TYPE        : single_sweep       
PROCESSING_DONE    : no_processing      
RESERVED5          : 0                  
RIS_SWEEPS         : 1                  
TIMEBASE           : 200_ns/div         
VERT_COUPLING      : DC_50_Ohms         
PROBE_ATT          : 1.0000e+000        
FIXED_VERT_GAIN    : 20_mV/div          
BANDWIDTH_LIMIT    : off                
VERTICAL_VERNIER   : 1.0500e+000        
ACQ_VERT_OFFSET    : 0.0000e+000        
WAVE_SOURCE        : UNKNOWN            
"
0.001372
0.001383
0.001370
0.001385
0.001383
0.001396
0.001375
0.001364
0.001383
0.001401
0.001375
0.001372
0.001391
0.001391
0.001372
0.001391
0.001388
0.001370
0.001370
0.001401
0.001375
0.001375
0.001370
0.001383
0.001370
0.001372
0.001388
0.001372
0.001391
0.001388
0.001385
0.001370
0.001401
0.001398
0.001372
0.001385
0.001404
0.001388
0.001370
0.001391
0.001377
0.001377
0.001367
0.001375
0.001388
0.001375
0.001356
0.001359
0.001385
0.001349
0.001367
0.001364
0.001375
0.001398
0.001375
0.001380
0.001401
0.001375
0.001362
0.001377
0.001380
0.001388
0.001346
0.001354
0.001362
0.001354
0.001341
0.001372
0.001367
0.001354
0.001364
0.001356
0.001364
0.001372
0.001349
0.001388
0.001380
0.001380
0.001380
0.001385
0.001383
0.001419
0.001370
0.001406
0.001388
0.001367
0.001391
0.001372
0.001385
0.001393
0.001375
0.001359
0.001364
0.001372
0.001375
0.001375
0.001380
0.001375
0.001372
0.001364
0.001388
0.001380
0.001359
0.001388
0.001372
0.001375
0.001370
0.001367
0.001385
0.001398
0.001356
0.001375
0.001383
0.001375
0.001354
0.001391
0.001385
0.001356
0.001354
0.001349
0.001372
0.001375
0.001370
0.001349
0.001401
0.001393
0.001406
0.001380
0.001370
0.001377
0.001356
0.001372
0.001377
0.001362
0.001375
0.001367
0.001372
0.001377
0.001372
0.001383
0.001401
0.001391
0.001412
0.001370
0.001370
0.001380
0.001356
0.001372
0.001367
0.001356
0.001343
0.001401
0.001396
0.001385
0.001396
0.001354
0.001398
0.001388
0.001388
0.001388
0.001398
0.001380
0.001375
0.001383
0.001377
0.001372
0.001388
0.001391
0.001364
0.001396
0.001351
0.001362
0.001370
0.001364
0.001359
0.001393
0.001380
0.001388
0.001364
0.001372
0.001419
0.001391
0.001391
0.001391
0.001367
0.001391
0.001383
0.001404
0.001380
0.001409
0.001401
0.001341
0.001354
0.001372
0.001367
0.001364
0.001385
0.001401
0.001367
0.001383
0.001377
0.001401
0.001375
0.001362
0.001398
0.001367
0.001380
0.001377
0.001383
0.001401
0.001398
0.001377
0.001359
0.001370
0.001367
0.001367
0.001385
0.001398
0.001398
0.001406
0.001380
0.001396
0.001375
0.001375
0.001430
0.001364
0.001383
0.001406
0.001372
0.001385
0.001364
0.001351
0.001354
0.001349
0.001341
0.001349
0.001362
0.001380
0.001385
0.001391
0.001398
0.001380
0.001354
0.001367
0.001370
0.001367
0.001362
0.001359
0.001359
0.001359
0.001377
0.001372
0.001391
0.001406
0.001391
0.001372
0.001383
0.001385
0.001385
0.001383
0.001383
0.001430
0.001388
0.001377
0.001391
0.001396
0.001377
0.001377
0.001370
0.001388
0.001388
0.001383
0.001383
0.001398
0.001396
0.001380
0.001377
0.001412
0.001380
0.001375
0.001396
0.001375
0.001398
0.001409
0.001388
0.001401
0.001372
0.001393
0.001383
0.001393
0.001377
0.001367
0.001367
0.001359
0.001364
0.001370
0.001377
0.001391
0.001370
0.001383
0.001377
0.001398
0.001380
0.001388
0.001380
0.001364
0.001362
0.001362
0.001349
0.001356
0.001359
0.001367
0.001377
0.001372
0.001380
0.001349
0.001338
0.001351
0.001367
0.001375
0.001391
0.001388
0.001383
0.001380
0.001391
0.001385
0.001354
0.001367
0.001377
0.001391
0.001401
0.001372
0.001367
0.001375
0.001370
0.001393
0.001388
0.001401
0.001385
0.001380
0.001396
0.001385
0.001388
0.001372
0.001396
0.001372
0.001367
0.001385
0.001370
0.001356
0.001367
0.001370
0.001359
0.001364
0.001367
0.001356
0.001383
0.001396
0.001396
0.001383
0.001388
0.001385
0.001359
0.001370
0.001383
0.001377
0.001375
0.001401
0.001385
0.001385
0.001380
0.001364
0.001351
0.001364
0.001359
0.001341
0.001349
0.001372
0.001391
0.001372
0.001391
0.001393
0.001375
0.001372
0.001396
0.001372
0.001377
0.001367
0.001385
0.001393
0.001367
0.001364
0.001380
0.001385
0.001398
0.001388
0.001380
0.001367
0.001398
0.001364
0.001372
0.001385
0.001377
0.001383
0.001396
0.001375
0.001377
0.001351
0.001375
0.001393
0.001380
0.001388
0.001393
0.001393
0.001406
0.001388
0.001388
0.001385
0.001404
0.001351
0.001356
0.001412
0.001375
0.001388
0.001398
0.001377
0.001362
0.001383
0.001383
0.001404
0.001398
0.001396
0.001393
0.001370
0.001391
0.001370
0.001388
0.001401
0.001406
0.001417
0.001396
0.001364
0.001328
0.001330
0.001351
0.001359
0.001375
0.001364
0.001370
0.001364
0.001341
0.001375
0.001330
0.001377
0.001393
0.001372
0.001354
0.001375
0.001380
0.001385
0.001391
0.001385
0.001385
0.001364
0.001367
0.001385
0.001354
0.001385
0.001443
0.001414
0.001372
0.001383
0.001328
0.001335
0.001335
0.001314
0.001341
0.001343
0.001322
0.001383
0.001356
0.001391
0.001425
0.001409
0.001430
0.001443
0.001364
0.001385
0.001362
0.001356
0.001372
0.001359
0.001380
0.001377
0.001372
0.001396
0.001398
0.001404
0.001375
0.001364
0.001354
0.001370
0.001346
0.001364
0.001393
0.001343
0.001338
0.001349
0.001335
0.001425
0.001425
0.001427
0.001448
0.001359
0.001330
0.001338
0.001346
0.001393
0.001385
0.001391
0.001404
0.001433
0.001422
0.001430
0.001453
0.001430
0.001364
0.001351
0.001307
0.001301
0.001304
0.001335
0.001385
0.001377
0.001396
0.001401
0.001385
0.001422
0.001433
0.001417
0.001398
0.001383
0.001328
0.001312
0.001296
0.001330
0.001346
0.001396
0.001435
0.001430
0.001446
0.001412
0.001414
0.001430
0.001393
0.001388
0.001359
0.001317
0.001230
0.001128
0.000992
0.000811
0.000420
-0.000318
-0.001519
-0.003222
-0.005434
-0.008176
-0.011167
-0.014260
-0.017456
-0.020266
-0.022714
-0.024845
-0.026527
-0.027755
-0.028529
-0.028985
-0.029211
-0.029376
-0.029657
-0.029806
-0.029591
-0.029161
-0.028872
-0.028481
-0.027999
-0.027589
-0.027217
-0.026611
-0.025970
-0.025333
-0.024569
-0.023701
-0.022804
-0.022116
-0.021476
-0.020914
-0.020476
-0.019613
-0.019128
-0.019277
-0.019364
-0.019170
-0.019010
-0.018435
-0.017601
-0.017152
-0.016682
-0.015927
-0.015302
-0.014856
-0.014790
-0.015032
-0.015097
-0.014796
-0.014148
-0.013392
-0.012951
-0.012859
-0.012962
-0.013001
-0.012731
-0.012319
-0.012125
-0.012219
-0.012306
-0.012093
-0.011613
-0.011049
-0.010605
-0.010456
-0.010626
-0.010724
-0.010516
-0.010207
-0.010049
-0.010005
-0.009734
-0.009362
-0.009215
-0.009186
-0.009018
-0.009139
-0.009635
-0.009884
-0.009761
-0.009527
-0.009275
-0.009018
-0.008869
-0.008743
-0.008617
-0.008530
-0.008365
-0.008262
-0.008255
-0.008194
-0.008013
-0.007830
-0.007549
-0.007229
-0.007108
-0.007168
-0.007027
-0.006756
-0.006793
-0.007066
-0.007184
-0.007074
-0.006916
-0.006788
-0.006693
-0.006861
-0.007016
-0.006691
-0.006198
-0.006103
-0.006153
-0.006287
-0.006287
-0.006048
-0.005780
-0.005717
-0.005691
-0.005647
-0.005822
-0.006169
-0.006394
-0.006318
-0.006376
-0.006295
-0.005946
-0.005699
-0.005696
-0.005463
-0.005292
-0.005298
-0.005298
-0.005295
-0.005447
-0.005576
-0.005578
-0.005597
-0.005707
-0.005647
-0.005392
-0.005166
-0.005101
-0.005033
-0.004857
-0.004754
-0.004626
-0.004280
-0.003868
-0.003718
-0.003700
-0.003794
-0.003946
-0.004033
-0.004167
-0.004261
-0.004266
-0.004091
-0.004093
-0.004277
-0.004251
-0.004101
-0.004049
-0.004125
-0.004012
-0.003831
-0.003721
-0.003626
-0.003540
-0.003359
-0.003343
-0.003487
-0.003582
-0.003558
-0.003679
-0.003860
-0.003946
-0.003776
-0.003561
-0.003340
-0.003162
-0.003104
-0.003046
-0.002973
-0.002894
-0.002957
-0.003209
-0.003445
-0.003621
-0.003576
-0.003401
-0.003233
-0.003227
-0.003149
-0.003088
-0.003217
-0.003403
-0.003477
-0.003440
-0.003356
-0.003175
-0.002892
-0.002687
-0.002608
-0.002653
-0.002868
-0.002999
-0.002886
-0.002894
-0.003046
-0.003067
-0.002905
-0.002960
-0.002957
-0.002928
-0.003104
-0.003324
-0.003214
-0.002873
-0.002724
-0.002663
-0.002666
-0.002784
-0.002910
-0.002983
-0.002973
-0.002957
-0.002910
-0.002679
-0.002579
-0.002668
-0.002524
-0.002264
-0.002233
-0.002346
-0.002196
-0.002086
-0.002215
-0.002138
-0.001976
-0.002120
-0.002435
-0.002548
-0.002480
-0.002414
-0.002414
-0.002354
-0.002215
-0.002117
-0.002010
-0.001884
-0.001737
-0.001614
-0.001666
-0.001915
-0.002159
-0.002343
-0.002490
-0.002616
-0.002566
-0.002333
-0.002060
-0.001855
-0.001658
-0.001669
-0.001850
-0.001997
-0.001960
-0.001868
-0.001837
-0.001929
-0.001834
-0.001803
-0.001837
-0.001711
-0.001627
-0.001782
-0.001884
-0.001713
-0.001674
-0.001816
-0.001905
-0.001992
-0.002086
-0.002083
-0.001918
-0.001784
-0.001669
-0.001637
-0.001656
-0.001711
-0.001732
-0.001685
-0.001706
-0.001619
-0.001459
-0.001517
-0.001519
-0.001336
-0.001218
-0.001307
-0.001362
-0.001173
-0.001029
-0.001186
-0.001315
-0.001241
-0.001168
-0.001244
-0.001322
-0.001372
-0.001511
-0.001627
-0.001553
-0.001427
-0.001427
-0.001427
-0.001244
-0.001147
-0.001044
-0.001005
-0.001078
-0.001212
-0.001286
-0.001291
-0.001236
-0.001144
-0.001126
-0.001241
-0.001304
-0.001257
-0.001296
-0.001278
-0.001094
-0.000913
-0.000808
-0.000827
-0.000869
-0.000963
-0.001023
-0.001023
-0.001110
-0.001160
-0.001055
-0.000939
-0.000903
-0.000892
-0.000908
-0.001065
-0.001233
-0.001301
-0.001320
-0.001330
-0.001233
-0.001042
-0.000806
-0.000685
-0.000682
-0.000800
-0.000879
-0.000929
-0.000953
-0.000995
-0.001010
-0.001008
-0.000974
-0.000924
-0.000992
-0.001047
-0.001073
-0.001113
-0.001060
-0.000905
-0.000690
-0.000593
-0.000632
-0.000653
-0.000706
-0.000782
-0.000761
-0.000611
-0.000583
-0.000688
-0.000709
-0.000556
-0.000478
-0.000506
-0.000577
-0.000559
-0.000522
-0.000638
-0.000819
-0.000840
-0.000677
-0.000554
-0.000491
-0.000509
-0.000470
-0.000454
-0.000514
-0.000556
-0.000564
-0.000559
-0.000617
-0.000758
-0.000840
-0.000748
-0.000601
-0.000611
-0.000632
-0.000533
-0.000541
-0.000651
-0.000737
-0.000672
-0.000643
-0.000606
-0.000598
-0.000651
-0.000690
-0.000706
-0.000535
-0.000291
-0.000255
-0.000365
-0.000399
-0.000357
-0.000323
-0.000226
-0.000202
-0.000302
-0.000399
-0.000415
-0.000472
-0.000562
-0.000575
-0.000525
-0.000548
-0.000483
-0.000328
-0.000278
-0.000465
-0.000548
-0.000491
-0.000593
-0.000672
-0.000562
-0.000504
-0.000527
-0.000485
-0.000362
-0.000312
-0.000236
-0.000079
-0.000053
-0.000197
-0.000163
-0.000131
-0.000179
-0.000179
-0.000231
-0.000383
-0.000546
-0.000512
-0.000346
-0.000171
-0.000134
-0.000255
-0.000299
-0.000312
-0.000483
-0.000698
-0.000787
-0.000709
-0.000604
-0.000449
-0.000352
-0.000404
-0.000585
-0.000604
-0.000504
-0.000467
-0.000465
-0.000433
-0.000430
-0.000430
-0.000349
-0.000278
-0.000325
-0.000404
-0.000386
-0.000354
-0.000320
-0.000165
-0.000116
-0.000249
-0.000207
-0.000068
-0.000084
-0.000126
-0.000126
-0.000165
-0.000276
-0.000278
-0.000155
-0.000116
-0.000252
-0.000344
-0.000328
-0.000325
-0.000339
-0.000297
-0.000207
-0.000079
0.000021
0.000005
-0.000071
-0.000079
-0.000129
-0.000144
-0.000186
-0.000116
-0.000005
-0.000013
-0.000011
-0.000026
-0.000095
-0.000102
0.000031
0.000047
0.000026
-0.000058
-0.000194
-0.000291
-0.000231
-0.000089
0.000063
0.000110
0.000003
-0.000129
-0.000220
-0.000391
-0.000501
-0.000491
-0.000449
-0.000441
-0.000360
-0.000205
-0.000060
-0.000074
-0.000113
-0.000081
-0.000134
-0.000116
-0.000045
-0.000118
-0.000278
-0.000286
-0.000129
-0.000021
0.000121
0.000275
0.000325
0.000228
0.000110
0.000005
-0.000003
-0.000008
0.000021
0.000063
0.000050
0.000107
0.000123
0.000118
0.000157
0.000079
-0.000037
0.000047
0.000275
0.000367
0.000270
0.000163
0.000131
0.000055
-0.000016
-0.000005
-0.000034
-0.000032
-0.000003
0.000079
0.000068
0.000029
0.000058
0.000136
0.000239
0.000265
0.000228
0.000152
0.000139
0.000233
0.000310
0.000296
0.000215
0.000220
0.000202
0.000113
0.000071
0.000066
-0.000042
-0.000110
-0.000039
0.000073
0.000016
-0.000071
-0.000068
0.000034
0.000092
0.000155
0.000247
0.000254
0.000218
0.000244
0.000223
0.000210
0.000184
0.000239
0.000302
0.000296
0.000315
0.000312
0.000304
0.000197
0.000005
-0.000037
-0.000042
-0.000105
-0.000116
0.000052
0.000131
0.000170
0.000205
0.000257
0.000254
0.000163
0.000160
0.000220
0.000186
0.000102
0.000123
0.000105
0.000018
-0.000018
0.000024
0.000039
-0.000008
-0.000011
0.000092
0.000210
0.000331
0.000344
0.000254
0.000231
0.000218
0.000254
0.000270
0.000323
0.000407
0.000391
0.000372
0.000315
0.000325
0.000354
0.000262
0.000273
0.000315
0.000199
0.000128
0.000165
0.000165
0.000026
-0.000034
0.000118
0.000149
0.000076
0.000079
0.000233
0.000252
0.000239
0.000320
0.000425
0.000375
0.000323
0.000307
0.000241
0.000113
0.000165
0.000302
0.000428
0.000430
0.000462
0.000409
0.000380
0.000357
0.000346
0.000383
0.000430
0.000420
0.000388
0.000388
0.000362
0.000268
0.000252
0.000218
0.000178
0.000157
0.000223
0.000155
-0.000021
-0.000102
-0.000029
0.000081
0.000097
0.000207
0.000260
0.000218
0.000218
0.000265
0.000333
0.000331
0.000283
0.000265
0.000275
0.000197
0.000252
0.000294
0.000328
0.000456
0.000517
0.000370
0.000199
0.000165
0.000152
0.000097
0.000144
0.000097
-0.000003
0.000018
0.000105
0.000107
0.000076
0.000094
0.000302
0.000467
0.000512
0.000491
0.000443
0.000470
0.000467
0.000420
0.000370
0.000291
0.000299
0.000380
0.000380
0.000420
0.000491
0.000462
0.000378
0.000265
0.000199
0.000233
0.000289
0.000299
0.000331
0.000307
0.000354
0.000409
0.000404
0.000286
0.000278
0.000375
0.000414
0.000475
0.000575
0.000601
0.000501
0.000491
0.000533
0.000512
0.000441
0.000477
0.000590
0.000585
0.000493
0.000422
0.000328
0.000228
0.000205
0.000286
0.000207
0.000168
0.000218
0.000315
0.000312
0.000312
0.000370
0.000409
0.000446
0.000441
0.000383
0.000281
0.000247
0.000349
0.000352
0.000286
0.000289
0.000354
0.000414
0.000393
0.000383
0.000352
0.000362
0.000409
0.000501
0.000456
0.000338
0.000247
0.000317
0.000294
0.000189
0.000163
0.000176
0.000257
0.000317
0.000407
0.000430
0.000412
0.000438
0.000446
0.000472
0.000483
0.000493
0.000386
0.000365
0.000401
0.000438
0.000401
0.000404
0.000414
0.000388
0.000362
0.000414
0.000425
0.000341
0.000365
0.000417
0.000467
0.000433
0.000341
0.000325
0.000331
0.000341
0.000341
0.000323
0.000422
0.000512
0.000564
0.000582
0.000540
0.000496
0.000462
0.000391
0.000380
0.000422
0.000365
0.000270
0.000247
0.000296
0.000344
0.000307
0.000317
0.000346
0.000404
0.000467
0.000480
0.000538
0.000590
0.000622
0.000637
0.000653
0.000632
0.000535
0.000399
0.000365
0.000443
0.000480
0.000433
0.000475
0.000530
0.000551
0.000559
0.000456
0.000441
0.000420
0.000441
0.000456
0.000441
0.000336
0.000375
0.000391
0.000422
0.000467
0.000454
0.000380
0.000359
0.000315
0.000281
0.000294
0.000359
0.000433
0.000464
0.000477
0.000446
0.000433
0.000414
0.000393
0.000430
0.000491
0.000488
0.000438
0.000414
0.000378
0.000302
0.000346
0.000428
0.000443
0.000480
0.000561
0.000522
0.000491
0.000365
0.000202
0.000071
0.000121
0.000199
0.000262
0.000388
0.000512
0.000504
0.000485
0.000609
0.000653
0.000643
0.000685
0.000779
0.000700
0.000611
0.000585
0.000480
0.000346
0.000296
0.000407
0.000488
0.000459
0.000454
0.000441
0.000367
0.000456
0.000527
0.000472
0.000441
0.000522
0.000430
0.000399
0.000456
0.000459
0.000380
0.000375
0.000443
0.000527
0.000569
0.000491
0.000428
0.000404
0.000328
0.000304
0.000404
0.000527
0.000564
0.000564
0.000572
0.000540
0.000459
0.000472
0.000477
0.000475
0.000506
0.000598
0.000651
0.000577
0.000498
0.000548
0.000596
0.000561
0.000485
0.000509
0.000564
0.000596
0.000567
0.000525
0.000512
0.000506
0.000533
0.000582
0.000588
0.000569
0.000567
0.000632
0.000637
0.000590
0.000543
0.000556
0.000588
0.000572
0.000585
0.000632
0.000661
0.000695
0.000672
0.000643
0.000661
0.000682
0.000695
0.000698
0.000664
0.000706
0.000724
0.000769
0.000740
0.000611
0.000522
0.000496
0.000480
0.000564
0.000582
0.000590
0.000530
0.000485
0.000522
0.000601
0.000598
0.000593
0.000572
0.000543
0.000488
0.000538
0.000567
0.000514
0.000467
0.000491
0.000433
0.000462
0.000535
0.000609
0.000606
0.000653
0.000711
0.000735
0.000792
0.000756
0.000601
0.000509
0.000512
0.000543
0.000617
0.000677
0.000661
0.000561
0.000530
0.000596
0.000627
0.000640
0.000706
0.000782
0.000737
0.000711
0.000740
0.000724
0.000540
0.000485
0.000561
0.000648
0.000661
0.000756
0.000837
0.000790
0.000656
0.000637
0.000687
0.000648
0.000596
0.000540
0.000519
0.000480
0.000462
0.000420
0.000438
0.000488
0.000480
0.000512
0.000632
0.000706
0.000721
0.000742
0.000714
0.000674
0.000664
0.000619
0.000627
0.000619
0.000648
0.000609
0.000590
0.000624
0.000598
0.000577
0.000590
0.000685
0.000666
0.000538
0.000396
0.000467
0.000512
0.000514
0.000554
0.000567
0.000488
0.000504
0.000598
0.000609
0.000561
0.000527
0.000590
0.000596
0.000635
0.000656
0.000651
0.000630
0.000580
0.000512
0.000514
0.000580
0.000617
0.000624
0.000661
0.000727
0.000753
0.000737
0.000777
0.000777
0.000748
0.000779
0.000774
0.000706
0.000716
0.000727
0.000732
0.000724
0.000674
0.000561
0.000472
0.000449
0.000477
0.000506
0.000512
0.000509
0.000540
0.000577
0.000622
0.000609
0.000564
0.000596
0.000711
0.000798
0.000834
0.000824
0.000711
0.000598
0.000588
0.000603
0.000653
0.000666
0.000643
0.000627
0.000637
0.000658
0.000674
0.000735
0.000824
0.000882
0.000871
0.000882
0.000840
0.000735
0.000635
0.000643
0.000664
0.000664
0.000740
0.000748
0.000753
0.000756
0.000753
0.000714
0.000656
0.000695
0.000777
0.000748
0.000664
0.000569
0.000525
0.000509
0.000530
0.000601
0.000669
0.000787
0.000805
0.000750
0.000711
0.000750
0.000790
0.000795
0.000803
0.000784
0.000742
0.000708
0.000674
0.000635
0.000658
0.000727
0.000777
0.000863
0.000921
0.000955
0.000921
0.000816
0.000690
0.000630
0.000619
0.000559
0.000512
0.000535
0.000637
0.000756
0.000803
0.000784
0.000774
0.000742
0.000716
0.000706
0.000682
0.000606
0.000580
0.000651
0.000700
0.000664
0.000606
0.000643
0.000554
0.000556
0.000637
0.000669
0.000624
0.000580
0.000614
0.000606
0.000514
0.000527
0.000572
0.000559
0.000575
0.000546
0.000509
0.000561
0.000635
0.000658
0.000590
0.000624
0.000763
0.000816
0.000766
0.000729
0.000672
0.000580
0.000567
0.000622
0.000674
0.000658
0.000561
0.000624
0.000690
0.000700
0.000716
0.000790
0.000819
0.000758
0.000811
0.000958
0.000950
0.000845
0.000821
0.000855
0.000834
0.000700
0.000711
0.000721
0.000630
0.000593
0.000632
0.000763
0.000790
0.000805
0.000824
0.000800
0.000735
0.000672
0.000740
0.000792
0.000763
0.000677
0.000564
0.000428
0.000417
0.000575
0.000627
0.000661
0.000682
0.000690
0.000727
0.000690
0.000687
0.000674
0.000619
0.000666
0.000706
0.000664
0.000632
0.000643
0.000714
0.000808
0.000832
0.000882
0.000866
0.000837
0.000798
0.000787
0.000753
0.000724
0.000700
0.000666
0.000745
0.000837
0.000819
0.000795
0.000735
0.000761
0.000672
0.000648
0.000708
0.000756
0.000753
0.000774
0.000782
0.000745
0.000724
0.000777
0.000892
0.000955
0.000887
0.000866
0.000845
0.000845
0.000845
0.000847
0.000853
0.000855
0.000845
0.000850
0.000816
0.000766
0.000716
0.000698
0.000687
0.000750
0.000769
0.000748
0.000695
0.000630
0.000569
0.000577
0.000632
0.000643
0.000603
0.000637
0.000693
0.000745
0.000792
0.000837
0.000845
0.000805
0.000805
0.000782
0.000708
0.000703
0.000630
0.000609
0.000596
0.000603
0.000658
0.000735
0.000737
0.000714
0.000677
0.000695
0.000798
0.000921
0.000947
0.000942
0.000853
0.000834
0.000805
0.000824
0.000724
0.000640
0.000679
0.000795
0.000816
0.000769
0.000763
0.000787
0.000742
0.000719
0.000756
0.000745
0.000756
0.000758
0.000700
0.000664
0.000585
0.000548
0.000525
0.000504
0.000609
0.000700
0.000740
0.000829
0.000842
0.000813
0.000803
0.000813
0.000840
0.000884
0.000889
0.000863
0.000803
0.000816
0.000834
0.000866
0.000879
0.000887
0.000800
0.000798
0.000829
0.000821
0.000771
0.000687
0.000637
0.000706
0.000790
0.000782
0.000666
0.000590
0.000614
0.000777
0.000847
0.000884
0.000837
0.000742
0.000756
0.000819
0.000774
0.000774
0.000779
0.000790
0.000811
0.000824
0.000805
0.000813
0.000750
0.000737
0.000805
0.000871
0.000882
0.000889
0.000840
0.000803
0.000719
0.000706
0.000740
0.000787
0.000858
0.000913
0.000887
0.000845
0.000837
0.000792
0.000750
0.000777
0.000787
0.000816
0.000816
0.000842
0.000792
0.000724
0.000714
0.000758
0.000753
0.000834
0.000821
0.000808
0.000798
0.000819
0.000847
0.000939
0.000942
0.000855
0.000761
0.000800
0.000824
0.000745
0.000648
0.000679
0.000721
0.000742
0.000721
0.000792
0.000779
0.000703
0.000685
0.000708
0.000677
0.000729
0.000787
0.000871
0.000819
0.000766
0.000756
0.000737
0.000795
0.000847
0.000834
0.000784
0.000790
0.000832
0.000821
0.000829
0.000824
0.000792
0.000777
0.000858
0.000923
0.000952
0.000887
0.000861
0.000826
0.000853
0.000858
0.000871
0.000787
0.000774
0.000782
0.000784
0.000774
0.000774
0.000774
0.000787
0.000808
0.000855
0.000902
0.000913
0.000884
0.000942
0.000960
0.000955
0.000955
0.000913
0.000784
0.000721
0.000693
0.000700
0.000737
0.000813
0.000923
0.000989
0.000984
0.000910
0.000871
0.000800
0.000716
0.000727
0.000737
0.000819
0.000837
0.000832
0.000811
0.000782
0.000769
0.000727
0.000795
0.000840
0.000879
0.000900
0.000923
0.000937
0.000826
0.000803
0.000832
0.000829
0.000800
0.000771
0.000735
0.000677
0.000653
0.000716
0.000750
0.000803
0.000861
0.000910
0.000895
0.000889
0.000853
0.000800
0.000787
0.000889
0.000910
0.000858
0.000784
0.000771
0.000740
0.000761
0.000811
0.000876
0.000897
0.000863
0.000847
0.000824
0.000811
0.000790
0.000795
0.000832
0.000874
0.000871
0.000803
0.000724
0.000703
0.000729
0.000766
0.000777
0.000769
0.000769
0.000695
0.000679
0.000758
0.000853
0.000871
0.000897
0.000897
0.000829
0.000868
0.000861
0.000845
0.000908
0.001010
0.001049
0.000952
0.000853
0.000745
0.000745
0.000711
0.000716
0.000737
0.000782
0.000858
0.000929
0.000952
0.000902
0.000853
0.000821
0.000790
0.000740
0.000826
0.000934
0.000979
0.000965
0.000910
0.000777
0.000740
0.000761
0.000716
0.000703
0.000695
0.000761
0.000758
0.000682
0.000643
0.000727
0.000792
0.000834
0.000813
0.000871
0.000858
0.000824
0.000923
0.000963
0.000939
0.000837
0.000879
0.000992
0.000973
0.000921
0.000976
0.000939
0.000910
0.000965
0.001031
0.001023
0.000994
0.000997
0.001018
0.000950
0.000942
0.000947
0.000968
0.000937
0.000879
0.000782
0.000750
0.000777
0.000826
0.000863
0.000910
0.000958
0.000929
0.000963
0.000889
0.000735
0.000674
0.000740
0.000792
0.000774
0.000756
0.000724
0.000661
0.000661
0.000756
0.000845
0.000879
0.000952
0.000952
0.000931
0.000918
0.000950
0.000955
0.000902
0.000926
0.000897
0.000889
0.000976
0.000929
0.000874
0.000879
0.000923
0.000960
0.000952
0.000952
0.000965
0.000913
0.000868
0.000855
0.000918
0.000900
0.000808
0.000837
0.000866
0.000876
0.000942
0.000984
0.001002
0.000965
0.000955
0.001002
0.000981
0.000855
0.000763
0.000821
0.000863
0.000887
0.000976
0.000992
0.000955
0.000910
0.000889
0.000905
0.000863
0.000834
0.000787
0.000693
0.000687
0.000727
0.000811
0.000834
0.000769
0.000724
0.000750
0.000800
0.000800
0.000858
0.000921
0.000931
0.000955
0.000997
0.001026
0.000944
0.000861
0.000824
0.000761
0.000677
0.000637
0.000703
0.000779
0.000782
0.000847
0.000900
0.000939
0.000902
0.000916
0.000916
0.000879
0.000853
0.000955
0.000986
0.000963
0.000866
0.000824
0.000829
0.000824
0.000787
0.000782
0.000795
0.000803
0.000821
0.000840
0.000855
0.000774
0.000651
0.000651
0.000708
0.000724
0.000813
0.000819
0.000766
0.000745
0.000845
0.000955
0.000937
0.000884
0.000819
0.000787
0.000842
0.000929
0.000937
0.000908
0.000921
0.000913
0.000971
0.000994
0.001005
0.000960
0.000850
0.000861
0.000923
0.000944
0.000950
0.000913
0.000897
0.000926
0.000913
0.000981
0.001049
0.000994
0.000944
0.000926
0.000910
0.000884
0.000850
0.000813
0.000900
0.000934
0.000916
0.000910
0.000895
0.000910
0.000950
0.000955
0.000910
0.000871
0.000861
0.000821
0.000805
0.000792
0.000821
0.000861
0.000876
0.000918
0.000950
0.000916
0.000834
0.000837
0.000889
0.000884
0.000918
0.000979
0.000965
0.000947
0.000971
0.001005
0.000895
0.000840
0.000863
0.000834
0.000805
0.000845
0.000882
0.000866
0.000889
0.000923
0.000879
0.000813
0.000892
0.000916
0.000895
0.000895
0.001005
0.001002
0.000963
0.000923
0.000918
0.000879
0.000879
0.000855
0.000842
0.000845
0.000897
0.000908
0.000926
0.000923
0.000837
0.000761
0.000714
0.000737
0.000808
0.000863
0.000895
0.000921
0.000913
0.000895
0.000884
0.000834
0.000769
0.000777
0.000887
0.000973
0.001052
0.001018
0.000968
0.000929
0.000947
0.000992
0.000944
0.000952
0.000994
0.000929
0.000882
0.000832
0.000771
0.000816
0.000916
0.000955
0.000960
0.000971
0.000971
0.000931
0.000923
0.001002
0.000989
0.000931
0.000958
0.001002
0.001052
0.001078
0.001060
0.001021
0.000965
0.000926
0.000900
0.000861
0.000829
0.000861
0.000913
0.001002
0.001010
0.000947
0.000921
0.000939
0.000986
0.000926
0.000842
0.000819
0.000779
0.000861
0.000929
0.000952
0.000950
0.000968
0.001013
0.001042
0.001002
0.000931
0.000900
0.000882
0.000905
0.000963
0.000973
0.000923
0.000884
0.000826
0.000832
0.000816
0.000771
0.000758
0.000816
0.000897
0.000884
0.000874
0.000887
0.000955
0.000992
0.000992
0.001015
0.000955
0.000905
0.000892
0.000952
0.001044
0.001065
0.001057
0.001086
0.001120
0.001115
0.001052
0.001007
0.000971
0.000929
0.000892
0.000892
0.000923
0.000921
0.000923
0.000965
0.000952
0.000934
0.000955
0.000971
0.000923
0.000845
0.000942
0.000963
0.001002
0.001013
0.001081
0.001089
0.001031
0.000997
0.001015
0.000958
0.000884
0.000837
0.000845
0.000916
0.000921
0.000850
0.000795
0.000729
0.000795
0.000829
0.000842
0.000908
0.000979
0.001021
0.001018
0.000992
0.000926
0.000824
0.000805
0.000847
0.000876
0.000834
0.000832
0.000800
0.000729
0.000637
0.000690
0.000769
0.000847
0.000910
0.000984
0.000994
0.000981
0.000923
0.000950
0.000910
0.000858
0.000842
0.000892
0.000887
0.000926
0.001010
0.001057
0.001023
0.000952
0.000963
0.001044
0.001076
0.001073
0.001060
0.001039
0.001052
0.001042
0.001021
0.000950
0.000910
0.000913
0.000960
0.000976
0.001005
0.001073
0.001131
0.001131
0.001123
0.001112
0.001055
0.001031
0.001034
0.001023
0.001018
0.000992
0.000944
0.000866
0.000771
0.000750
0.000763
0.000866
0.000947
0.000968
0.001002
0.001063
0.001078
0.001078
0.001044
0.000955
0.000900
0.000918
0.000902
0.000910
0.000850
0.000766
0.000761
0.000805
0.000853
0.000887
0.000908
0.000965
0.000963
0.000950
0.000955
0.000976
0.000973
0.000986
0.000979
0.000981
0.000960
0.000965
0.000986
0.000994
0.000929
0.000819
0.000777
0.000811
0.000868
0.000923
0.000963
0.001015
0.001007
0.001023
0.000944
0.000937
0.000895
0.000944
0.001010
0.001018
0.001036
0.001039
0.001044
0.001086
0.001076
0.001060
0.001028
0.001026
0.001034
0.001021
0.000997
0.000955
0.000931
0.000889
0.000908
0.000952
0.000981
0.000971
0.000989
0.001039
0.001021
0.001000
0.001002
0.000976
0.000947
0.001002
0.001047
0.001039
0.000986
0.000944
0.000958
0.000931
0.000931
0.000984
0.001052
0.001028
0.001007
0.001034
0.001031
0.000984
0.000973
0.000986
0.000889
0.000874
0.000926
0.000929
0.000918
0.000916
0.001021
0.001065
0.001099
0.001078
0.001055
0.001010
0.000958
0.000992
0.001034
0.001018
0.000921
0.000853
0.000868
0.000892
0.000895
0.000984
0.000986
0.000934
0.000958
0.000971
0.000989
0.000923
0.000887
0.000918
0.000960
0.001007
0.001005
0.001034
0.000979
0.000863
0.000813
0.000792
0.000824
0.000855
0.000908
0.000955
0.000963
0.000944
0.000981
0.001000
0.000950
0.000892
0.000902
0.000866
0.000858
0.000944
0.001026
0.001070
0.001049
0.001044
0.001018
0.000994
0.000992
0.000952
0.000965
0.000950
0.000963
0.000963
0.000916
0.000884
0.000900
0.000944
0.001002
0.001049
0.001068
0.001047
0.000968
0.000866
0.000866
0.000855
0.000840
0.000910
0.000950
0.000921
0.000895
0.000905
0.000829
0.000863
0.000931
0.000986
0.001007
0.001049
0.001005
0.000939
0.000874
0.000918
0.000882
0.000895
0.000960
0.000984
0.000950
0.000981
0.001052
0.001110
0.001105
0.001115
0.001107
0.001049
0.001021
0.001026
0.000986
0.000939
0.000963
0.000971
0.001010
0.001039
0.001042
0.001034
0.001013
0.001010
0.001044
0.001052
0.001073
0.001005
0.000937
0.000947
0.000944
0.000952
0.000939
0.000950
0.000929
0.000913
0.000955
0.000952
0.000918
0.000900
0.000926
0.001005
0.000984
0.000986
0.001010
0.001026
0.001002
0.001000
0.000992
0.001039
0.001005
0.000934
0.000950
0.000960
0.001002
0.001078
0.001136
0.001173
0.001136
0.001094
0.001073
0.001031
0.000965
0.000944
0.000926
0.000981
0.001000
0.000992
0.000979
0.000984
0.000981
0.000950
0.000989
0.001063
0.001118
0.001097
0.001055
0.001028
0.001039
0.001094
0.001097
0.001078
0.001042
0.001010
0.000939
0.000942
0.000958
0.000923
0.000882
0.000944
0.000973
0.000968
0.001010
0.001112
0.001102
0.001126
0.001078
0.001131
0.001081
0.001028
0.000950
0.000908
0.000902
0.000855
0.000908
0.001002
0.001055
0.001084
0.001102
0.001107
0.001070
0.000992
0.000950
0.000965
0.000921
0.000950
0.001010
0.001052
0.001063
0.001055
0.000997
0.000921
0.000902
0.000939
0.000876
0.000871
0.000947
0.001028
0.001068
0.001118
0.001196
0.001149
0.001076
0.001133
0.001170
0.001094
0.001034
0.001034
0.001055
0.001005
0.000986
0.001026
0.001036
0.001002
0.001057
0.001136
0.001136
0.001141
0.001126
0.001147
0.001068
0.001031
0.001015
0.000994
0.000960
0.000944
0.001010
0.001002
0.000989
0.001060
0.001052
0.000989
0.001073
0.001144
0.001120
0.001105
0.001097
0.001107
0.000994
0.000931
0.001013
0.001065
0.001015
0.001013
0.001015
0.000992
0.000950
0.000989
0.001049
0.001044
0.001063
0.001099
0.001128
0.001105
0.001052
0.000965
0.000929
0.000989
0.001068
0.001089
0.001031
0.000994
0.000965
0.000971
0.000942
0.000942
0.001007
0.001010
0.000955
0.000994
0.001021
0.001034
0.001015
0.000976
0.000984
0.001013
0.001049
0.001091
0.001081
0.001063
0.001076
0.001105
0.001120
0.001126
0.001126
0.001105
0.001070
0.001034
0.000984
0.000979
0.000965
0.000997
0.001018
0.001039
0.001055
0.000992
0.000979
0.000986
0.000971
0.000973
0.001036
0.001031
0.001007
0.001068
0.001065
0.001031
0.001021
0.001007
0.001007
0.001073
0.001123
0.001147
0.001081
0.001102
0.001091
0.001031
0.000944
0.000960
0.000944
0.000861
0.000879
0.000963
0.000989
0.000986
0.001044
0.001091
0.001068
0.001086
0.001105
0.001105
0.001115
0.001118
0.001026
0.001036
0.000994
0.000934
0.000892
0.000955
0.000947
0.000910
0.000947
0.000944
0.000910
0.000821
0.000834
0.000937
0.000979
0.001063
0.001023
0.000984
0.001034
0.001076
0.001044
0.001031
0.001028
0.001081
0.001118
0.001186
0.001207
0.001183
0.001084
0.001034
0.001013
0.001021
0.000997
0.001018
0.001068
0.001094
0.001118
0.001149
0.001165
0.001102
0.001068
0.001007
0.000944
0.000955
0.000965
0.000976
0.001005
0.001010
0.001021
0.001055
0.001031
0.001081
0.001073
0.001057
0.001060
0.001168
0.001165
0.001086
0.000976
0.000923
0.000934
0.000973
0.000989
0.000929
0.000918
0.000900
0.000887
0.000892
0.000923
0.000944
0.000997
0.001086
0.001131
0.001181
0.001183
0.001141
0.001102
0.001081
0.001063
0.001039
0.001039
0.001073
0.001055
0.001076
0.001068
0.001139
0.001147
0.001105
0.001131
0.001115
0.001089
0.001028
0.001055
0.001044
0.001063
0.001052
0.001028
0.000981
0.000950
0.000986
0.001021
0.001021
0.000968
0.001007
0.001042
0.001107
0.001089
0.001055
0.001084
0.001073
0.001076
0.001065
0.001076
0.001086
0.001094
0.001105
0.001118
0.001089
0.001021
0.001015
0.001036
0.001052
0.001044
0.001034
0.001034
0.001065
0.001039
0.001036
0.001118
0.001131
0.001068
0.001055
0.001044
0.000981
0.000963
0.000984
0.000989
0.000882
0.000923
0.000971
0.000960
0.001002
0.000992
0.001028
0.000994
0.000910
0.000905
0.000908
0.000952
0.000965
0.000937
0.000910
0.000965
0.001015
0.001070
0.001094
0.001115
0.001112
0.001128
0.001162
0.001173
0.001123
0.001047
0.001081
0.001089
0.001036
0.001031
0.001112
0.001126
0.001065
0.001068
0.001133
0.001147
0.001073
0.001094
0.001141
0.001102
0.001057
0.001076
0.001149
0.001147
0.001168
0.001225
0.001233
0.001178
0.001194
0.001204
0.001186
0.001173
0.001181
0.001215
0.001228
0.001199
0.001194
0.001105
0.000979
0.000981
0.001018
0.001049
0.001063
0.001107
0.001126
0.001060
0.001065
0.001105
0.001199
0.001202
0.001209
0.001154
0.001139
0.001115
0.001039
0.001018
0.000986
0.001028
0.001049
0.001028
0.001042
0.001015
0.001013
0.001028
0.001018
0.000989
0.001000
0.001042
0.001107
0.001175
0.001173
0.001170
0.001186
0.001188
0.001162
0.001136
0.001162
0.001178
0.001147
0.001049
0.000973
0.000968
0.001031
0.001068
0.001073
0.001110
0.001086
0.001078
0.001073
0.001044
0.001021
0.001005
0.001007
0.001042
0.001076
0.001099
0.001097
0.001144
0.001149
0.001094
0.001034
0.000984
0.001023
0.001039
0.001018
0.001078
0.001183
0.001162
0.001147
0.001126
0.001078
0.001089
0.001107
0.001133
0.001136
0.001105
0.001049
0.001102
0.001105
0.001099
0.001091
0.001105
0.001068
0.000986
0.000979
0.001052
0.001107
0.001070
0.001036
0.001073
0.001099
0.001123
0.001183
0.001202
0.001209
0.001149
0.001115
0.001105
0.001049
0.001015
0.001028
0.000984
0.001034
0.001049
0.001013
0.000979
0.000942
0.000916
0.000931
0.000965
0.000981
0.000963
0.000944
0.000971
0.000958
0.000960
0.000997
0.001036
0.001078
0.001028
0.001010
0.001007
0.000992
0.001007
0.001057
0.001031
0.001049
0.001091
0.001199
0.001175
0.001144
0.001073
0.001021
0.001026
0.001015
0.001028
0.001026
0.001047
0.001105
0.001128
0.001144
0.001217
0.001238
0.001168
0.001118
0.001068
0.001057
0.001073
0.001139
0.001173
0.001144
0.001136
0.001107
0.001036
0.001031
0.001084
0.001084
0.001136
0.001212
0.001225
0.001204
0.001144
0.001105
0.001023
0.001047
0.001070
0.001076
0.001055
0.001128
0.001178
0.001202
0.001144
0.001115
0.001073
0.001078
0.001099
0.001120
0.001147
0.001094
0.001031
0.001060
0.001031
0.001057
0.001102
0.001120
0.001126
0.001144
0.001160
0.001162
0.001128
0.001126
0.001126
0.001107
0.001028
0.001039
0.001068
0.001105
0.001107
0.001094
0.001078
0.001084
0.001047
0.001044
0.001070
0.001036
0.001031
0.001089
0.001157
0.001086
0.000955
0.000916
0.000868
0.000950
0.001044
0.001073
0.001133
0.001091
0.001162
0.001175
0.001118
0.001099
0.001110
0.001112
0.001115
0.001144
0.001144
0.001057
0.001013
0.000997
0.001026
0.001028
0.001081
0.001183
0.001196
0.001181
0.001126
0.001065
0.001002
0.000960
0.000992
0.001028
0.001026
0.001021
0.001044
0.001047
0.001005
0.001068
0.001084
0.001089
0.001165
0.001152
0.001126
0.001097
0.001076
0.001128
0.001112
0.001128
0.001149
0.001165
0.001110
0.001076
0.001036
0.001057
0.001112
0.001154
0.001139
0.001199
0.001249
0.001246
0.001147
0.001160
0.001131
0.001086
0.001097
0.001115
0.001112
0.001044
0.001023
0.001084
0.001157
0.001215
0.001188
0.001178
0.001097
0.001015
0.000997
0.001049
0.001057
0.001112
0.001118
0.001097
0.001084
0.001049
0.001047
0.001073
0.001102
0.001160
0.001165
0.001170
0.001194
0.001149
0.001076
0.001034
0.001028
0.001007
0.001023
0.001078
0.001034
0.001000
0.001063
0.001107
0.001118
0.001099
0.001110
0.001154
0.001099
0.001128
0.001139
0.001139
0.001076
0.001055
0.001073
0.001047
0.000994
0.000997
0.001097
0.001118
0.001126
0.001162
0.001078
0.001052
0.001057
0.001042
0.001042
0.001068
0.001063
0.001099
0.001123
0.001160
0.001154
0.001128
0.001049
0.001099
0.001097
0.001063
0.001065
0.001115
0.001105
0.001070
0.001060
0.001042
0.001078
0.001133
0.001144
0.001133
0.001118
0.001115
0.001120
0.001065
0.001023
0.000997
0.001049
0.001110
0.001107
0.001144
0.001141
0.001102
0.001057
0.001076
0.001086
0.001086
0.001091
0.001186
0.001215
0.001204
0.001202
0.001147
0.001141
0.001133
0.001120
0.001084
0.001042
0.001063
0.001073
0.001084
0.001144
0.001147
0.001115
0.001044
0.001052
0.001094
0.001102
0.001136
0.001173
0.001175
0.001162
0.001165
0.001199
0.001209
0.001157
0.001162
0.001183
0.001181
0.001152
0.001149
0.001147
0.001123
0.001091
0.001126
0.001144
0.001209
0.001202
0.001223
0.001212
0.001175
0.001149
0.001120
0.001110
0.001078
0.001031
0.001060
0.001073
0.001073
0.001076
0.001052
0.001070
0.001133
0.001152
0.001131
0.001026
0.001002
0.001026
0.001091
0.001136
0.001165
0.001199
0.001202
0.001194
0.001220
0.001191
0.001099
0.001102
0.001144
0.001170
0.001141
0.001110
0.001139
0.001102
0.001160
0.001215
0.001230
0.001128
0.001023
0.000981
0.000950
0.001057
0.001086
0.001084
0.001102
0.001123
0.001160
0.001160
0.001139
0.001112
0.001081
0.001110
0.001094
0.001055
0.001094
0.001091
0.001120
0.001099
0.001118
0.001136
0.001175
0.001207
0.001162
0.001107
0.001136
0.001131
0.001168
0.001183
0.001191
0.001168
0.001170
0.001199
0.001173
0.001196
0.001212
0.001209
0.001178
0.001160
0.001141
0.001123
0.001073
0.001036
0.001110
0.001160
0.001175
0.001141
0.001091
0.001086
0.001128
0.001115
0.001136
0.001188
0.001204
0.001212
0.001225
0.001194
0.001202
0.001123
0.001086
0.001162
0.001202
0.001191
0.001209
0.001181
0.001149
0.001081
0.001107
0.001144
0.001126
0.001107
0.001160
0.001175
0.001078
0.001023
0.000994
0.000921
0.000863
0.000889
0.000997
0.001084
0.001094
0.001099
0.001091
0.001120
0.001144
0.001160
0.001126
0.001126
0.001094
0.001089
0.001139
0.001186
0.001202
0.001128
0.001070
0.001084
0.001149
0.001175
0.001165
0.001157
0.001160
0.001170
0.001178
0.001196
0.001188
0.001078
0.001013
0.001026
0.001107
0.001115
0.001149
0.001162
0.001165
0.001162
0.001120
0.001089
0.001089
0.001091
0.001157
0.001183
0.001165
0.001123
0.001102
0.001107
0.001086
0.001026
0.001044
0.001091
0.001112
0.001123
0.001131
0.001194
0.001202
0.001141
0.001126
0.001097
0.001065
0.001078
0.001144
0.001188
0.001173
0.001123
0.001068
0.001105
0.001133
0.001160
0.001160
0.001217
0.001209
0.001217
0.001215
0.001257
0.001244
0.001246
0.001251
0.001230
0.001212
0.001144
0.001139
0.001136
0.001152
0.001165
0.001165
0.001160
0.001147
0.001089
0.001097
0.001057
0.001084
0.001021
0.001057
0.001099
0.001097
0.001063
0.001039
0.001034
0.001049
0.001097
0.001123
0.001141
0.001160
0.001170
0.001202
0.001257
0.001241
0.001183
0.001094
0.001097
0.001099
0.001168
0.001152
0.001160
0.001147
0.001154
0.001157
0.001173
0.001162
0.001084
0.001078
0.001107
0.001160
0.001165
0.001175
0.001196
0.001173
0.001199
0.001217
0.001251
0.001257
0.001215
0.001209
0.001194
0.001183
0.001152
0.001133
0.001118
0.001078
0.001052
0.001063
0.001023
0.001049
0.001107
0.001133
0.001154
0.001147
0.001168
0.001168
0.001183
0.001157
0.001157
0.001181
0.001207
0.001196
0.001186
0.001157
0.001154
0.001194
0.001217
0.001194
0.001178
0.001170
0.001152
0.001133
0.001091
0.001086
0.001086
0.001065
0.001068
0.001196
0.001217
0.001191
0.001112
0.001078
0.000989
0.001005
0.001057
0.001073
0.001081
0.001076
0.001084
0.001084
0.001073
0.001070
0.001068
0.001076
0.001076
0.001086
0.001063
0.001063
0.001081
0.001078
0.001073
0.001060
0.001133
0.001110
0.001115
0.001196
0.001186
0.001220
0.001217
0.001241
0.001238
0.001220
0.001207
0.001228
0.001202
0.001230
0.001259
0.001244
0.001207
0.001162
0.001204
0.001236
0.001259
0.001217
0.001188
0.001175
0.001188
0.001202
0.001149
0.001162
0.001199
0.001120
0.001141
0.001154
0.001194
0.001126
0.001147
0.001128
0.001070
0.001060
0.001089
0.001160
0.001139
0.001102
0.001055
0.001078
0.001057
0.001034
0.001031
0.001107
0.001102
0.001102
0.001188
0.001251
0.001233
0.001217
0.001209
0.001230
0.001181
0.001097
0.001068
0.001057
0.001073
0.001144
0.001236
0.001257
0.001215
0.001175
0.001157
0.001123
0.001057
0.001084
0.001133
0.001173
0.001196
0.001228
0.001207
0.001204
0.001202
0.001204
0.001196
0.001228
0.001246
0.001267
0.001249
0.001223
0.001238
0.001230
0.001191
0.001186
0.001136
0.001141
0.001110
0.001136
0.001097
0.001073
0.001078
0.001133
0.001133
0.001149
0.001157
0.001175
0.001204
0.001217
0.001215
0.001152
0.001076
0.001068
0.001120
0.001120
0.001194
0.001217
0.001220
0.001262
0.001280
0.001278
0.001244
0.001220
0.001188
0.001199
0.001249
0.001251
0.001236
0.001223
0.001209
0.001147
0.001091
0.001105
0.001120
0.001131
0.001131
0.001165
0.001202
0.001202
0.001173
0.001183
0.001149
0.001099
0.001107
0.001149
0.001215
0.001215
0.001246
0.001202
0.001188
0.001168
0.001170
0.001217
0.001215
0.001178
0.001136
0.001086
0.001112
0.001126
0.001128
0.001136
0.001141
0.001173
0.001183
0.001209
0.001202
0.001181
0.001147
0.001165
0.001199
0.001199
0.001188
0.001199
0.001223
0.001202
0.001215
0.001220
0.001186
0.001173
0.001136
0.001191
0.001194
0.001147
0.001173
0.001178
0.001152
0.001173
0.001160
0.001202
0.001251
0.001238
0.001272
0.001230
0.001202
0.001141
0.001144
0.001149
0.001110
0.001131
0.001149
0.001144
0.001070
0.001081
0.001152
0.001162
0.001131
0.001133
0.001204
0.001209
0.001165
0.001144
0.001152
0.001170
0.001173
0.001209
0.001202
0.001144
0.001120
0.001170
0.001178
0.001133
0.001110
0.001078
0.001055
0.001081
0.001128
0.001204
0.001215
0.001246
0.001215
0.001257
0.001283
0.001259
0.001194
0.001194
0.001230
0.001173
0.001154
0.001118
0.001144
0.001149
0.001131
0.001141
0.001107
0.001165
0.001204
0.001220
0.001228
0.001233
0.001207
0.001194
0.001183
0.001144
0.001086
0.001099
0.001139
0.001202
0.001209
0.001188
0.001178
0.001183
0.001149
0.001154
0.001173
0.001194
0.001152
0.001188
0.001188
0.001147
0.001178
0.001131
0.001107
0.001102
0.001112
0.001157
0.001147
0.001147
0.001199
0.001207
0.001173
0.001160
0.001136
0.001131
0.001099
0.001133
0.001128
0.001112
0.001102
0.001105
0.001168
0.001209
0.001275
0.001265
0.001238
0.001241
0.001236
0.001259
0.001230
0.001225
0.001207
0.001186
0.001094
0.001107
0.001136
0.001162
0.001126
0.001091
0.001126
0.001194
0.001183
0.001196
0.001173
0.001175
0.001160
0.001196
0.001246
0.001217
0.001162
0.001126
0.001120
0.001141
0.001144
0.001199
0.001173
0.001110
0.001118
0.001181
0.001186
0.001202
0.001191
0.001230
0.001238
0.001267
0.001233
0.001241
0.001228
0.001233
0.001168
0.001165
0.001157
0.001194
0.001220
0.001230
0.001170
0.001102
0.001131
0.001183
0.001202
0.001165
0.001181
0.001207
0.001202
0.001233
0.001254
0.001272
0.001246
0.001209
0.001204
0.001209
0.001199
0.001233
0.001254
0.001236
0.001246
0.001270
0.001262
0.001228
0.001181
0.001152
0.001157
0.001165
0.001168
0.001191
0.001196
0.001178
0.001131
0.001112
0.001149
0.001199
0.001173
0.001173
0.001181
0.001207
0.001191
0.001225
0.001262
0.001217
0.001128
0.001168
0.001181
0.001196
0.001131
0.001157
0.001154
0.001160
0.001162
0.001186
0.001160
0.001139
0.001165
0.001183
0.001194
0.001217
0.001236
0.001196
0.001207
0.001244
0.001246
0.001230
0.001181
0.001128
0.001115
0.001112
0.001099
0.001110
0.001110
0.001065
0.001110
0.001165
0.001181
0.001204
0.001212
0.001262
0.001259
0.001223
0.001225
0.001236
0.001236
0.001225
0.001238
0.001236
0.001238
0.001304
0.001322
0.001320
0.001278
0.001272
0.001270
0.001262
0.001215
0.001191
0.001160
0.001141
0.001168
0.001178
0.001157
0.001152
0.001149
0.001196
0.001209
0.001183
0.001154
0.001105
0.001107
0.001186
0.001175
0.001173
0.001202
0.001175
0.001157
0.001165
0.001157
0.001168
0.001157
0.001207
0.001301
0.001283
0.001175
0.001107
0.001057
0.001063
0.001070
0.001105
0.001123
0.001081
0.001084
0.001147
0.001196
0.001188
0.001110
0.001081
0.001102
0.001147
0.001128
0.001144
0.001154
0.001178
0.001154
0.001204
0.001217
0.001259
0.001233
0.001188
0.001188
0.001202
0.001160
0.001149
0.001202
0.001202
0.001110
0.001107
0.001115
0.001133
0.001165
0.001225
0.001244
0.001293
0.001241
0.001238
0.001236
0.001175
0.001157
0.001110
0.001157
0.001199
0.001220
0.001212
0.001212
0.001199
0.001181
0.001241
0.001251
0.001265
0.001220
0.001147
0.001115
0.001126
0.001120
0.001136
0.001157
0.001123
0.001131
0.001149
0.001165
0.001196
0.001209
0.001196
0.001241
0.001238
0.001215
0.001236
0.001241
0.001291
0.001270
0.001299
0.001280
0.001236
0.001220
0.001199
0.001220
0.001157
0.001144
0.001162
0.001160
0.001199
0.001194
0.001215
0.001209
0.001181
0.001223
0.001249
0.001223
0.001204
0.001196
0.001220
0.001215
0.001244
0.001241
0.001223
0.001199
0.001209
0.001209
0.001204
0.001202
0.001141
0.001107
0.001131
0.001170
0.001217
0.001194
0.001191
0.001251
0.001275
0.001251
0.001270
0.001272
0.001249
0.001178
0.001154
0.001165
0.001160
0.001131
0.001149
0.001118
0.001091
0.001105
0.001152
0.001204
0.001217
0.001160
0.001181
0.001212
0.001244
0.001173
0.001139
0.001139
0.001147
0.001202
0.001209
0.001238
0.001199
0.001191
0.001225
0.001173
0.001170
0.001215
0.001254
0.001309
0.001312
0.001312
0.001301
0.001280
0.001236
0.001236
0.001207
0.001162
0.001238
0.001246
0.001215
0.001228
0.001225
0.001162
0.001186
0.001196
0.001207
0.001270
0.001262
0.001241
0.001196
0.001154
0.001162
0.001225
0.001207
0.001188
0.001207
0.001244
0.001183
0.001168
0.001186
0.001178
0.001154
0.001199
0.001207
0.001228
0.001223
0.001230
0.001183
0.001199
0.001202
0.001188
0.001244
0.001212
0.001199
0.001170
0.001141
0.001165
0.001165
0.001168
0.001188
0.001181
0.001207
0.001223
0.001236
0.001196
0.001202
0.001175
0.001160
0.001207
0.001254
0.001275
0.001265
0.001254
0.001254
0.001199
0.001162
0.001186
0.001170
0.001102
0.001168
0.001154
0.001152
0.001144
0.001128
0.001160
0.001152
0.001183
0.001202
0.001160
0.001183
0.001183
0.001178
0.001220
0.001251
0.001228
0.001212
0.001236
0.001238
0.001170
0.001238
0.001246
0.001259
0.001238
0.001249
0.001246
0.001202
0.001152
0.001107
0.001102
0.001139
0.001178
0.001228
0.001220
0.001251
0.001212
0.001199
0.001139
0.001141
0.001139
0.001144
0.001147
0.001170
0.001157
0.001139
0.001107
0.001147
0.001186
0.001207
0.001196
0.001204
0.001178
0.001128
0.001091
0.001128
0.001081
0.001102
0.001152
0.001246
0.001259
0.001259
0.001272
0.001275
0.001286
0.001291
0.001293
0.001267
0.001230
0.001162
0.001128
0.001102
0.001070
0.001063
0.001049
0.001021
0.001102
0.001186
0.001207
0.001217
0.001183
0.001209
0.001251
0.001265
0.001251
0.001236
0.001225
0.001228
0.001246
0.001230
0.001199
0.001188
0.001223
0.001270
0.001233
0.001217
0.001207
0.001199
0.001199
0.001223
0.001199
0.001168
0.001144
0.001181
0.001209
0.001230
0.001233
0.001246
0.001230
0.001202
0.001204
0.001207
0.001165
0.001128
0.001191
0.001207
0.001217
0.001233
0.001217
0.001223
0.001178
0.001199
0.001173
0.001194
0.001157
0.001149
0.001215
0.001228
0.001209
0.001236
0.001223
0.001175
0.001178
0.001154
0.001139
0.001199
0.001217
0.001270
0.001249
0.001204
0.001220
0.001215
0.001188
0.001154
0.001183
0.001202
0.001228
0.001238
0.001228
0.001215
0.001147
0.001157
0.001188
0.001220
0.001186
0.001223
0.001233
0.001283
0.001275
0.001291
0.001244
0.001230
0.001204
0.001204
0.001191
0.001225
0.001215
0.001199
0.001225
0.001223
0.001207
0.001220
0.001168
0.001141
0.001063
0.001060
0.001147
0.001170
0.001215
0.001241
0.001236
0.001204
0.001144
0.001131
0.001147
0.001073
0.001018
0.001049
0.001115
0.001181
0.001196
0.001249
0.001233
0.001215
0.001209
0.001225
0.001207
0.001257
0.001265
0.001254
0.001278
0.001262
0.001280
0.001288
0.001291
0.001278
0.001223
0.001209
0.001181
0.001178
0.001186
0.001233
0.001209
0.001212
0.001212
t0(sec) = 0.000000E+0
dt(sec) = 4.000000E-10
F3:INSP "
DESCRIPTOR_NAME    : WAVEDESC           
TEMPLATE_NAME      : LECROY_2_3         
COMM_TYPE          : word               
COMM_ORDER         : HIFIRST            
WAVE_DESCRIPTOR    : 346                
USER_TEXT          : 0                  
RES_DESC1          : 0                  
TRIGTIME_ARRAY     : 0                  
RIS_TIME_ARRAY     : 0                  
RES_ARRAY1         : 0                  
WAVE_ARRAY_1       : 9952               
WAVE_ARRAY_2       : 0                  
RES_ARRAY2         : 0                  
RES_ARRAY3         : 0                  
INSTRUMENT_NAME    : LECROYHDO6104      
INSTRUMENT_NUMBER  : 6308               
TRACE_LABEL        :                    
RESERVED1          : 4976               
RESERVED2          : 0                  
WAVE_ARRAY_COUNT   : 4976               
PNTS_PER_SCREEN    : 5000               
FIRST_VALID_PNT    : 0                  
LAST_VALID_PNT     : 4975               
FIRST_POINT        : 0                  
SPARSING_FACTOR    : 1                  
SEGMENT_INDEX      : 0                  
SUBARRAY_COUNT     : 1                  
SWEEPS_PER_ACQ     : 200                
POINTS_PER_PAIR    : 0                  
PAIR_OFFSET        : 0                  
VERTICAL_GAIN      : 2.4989e-006        
VERTICAL_OFFSET    : 1.6500e-002        
MAX_VALUE          : 3.0578e+004        
MIN_VALUE          : 1.4827e+004        
NOMINAL_BITS       : 16                 
NOM_SUBARRAY_COUNT : 1                  
HORIZ_INTERVAL     : 4.0000e-010        
HORIZ_OFFSET       : -2.00000000e-007   
PIXEL_OFFSET       : -2.10000000e-007   
VERTUNIT           : Unit Name = V
HORUNIT            : Unit Name = S
HORIZ_UNCERTAINTY  : 1.0000e-012        
TRIGGER_TIME       : Date = APR 17, 2024, Time = 19:33:12.105208305
ACQ_DURATION       : 1.0199e+001        
RECORD_TYPE        : single_sweep       
PROCESSING_DONE    : no_processing      
RESERVED5          : 0                  
RIS_SWEEPS         : 1                  
TIMEBASE           : 200_ns/div         
VERT_COUPLING      : DC_50_Ohms         
PROBE_ATT          : 1.0000e+000        
FIXED_VERT_GAIN    : 5_mV/div           
BANDWIDTH_LIMIT    : off                
VERTICAL_VERNIER   : 1.0000e+000        
ACQ_VERT_OFFSET    : 0.0000e+000        
WAVE_SOURCE        : UNKNOWN            
"
0.000502
0.000495
0.000490
0.000512
0.000502
0.000507
0.000477
0.000512
0.000515
0.000487
0.000535
0.000517
0.000515
0.000465
0.000530
0.000500
0.000490
0.000502
0.000500
0.000522
0.000495
0.000490
0.000492
0.000482
0.000485
0.000500
0.000500
0.000510
0.000505
0.000490
0.000490
0.000497
0.000475
0.000492
0.000512
0.000495
0.000525
0.000545
0.000517
0.000510
0.000497
0.000502
0.000490
0.000482
0.000525
0.000517
0.000480
0.000515
0.000500
0.000502
0.000470
0.000485
0.000492
0.000470
0.000507
0.000505
0.000495
0.000520
0.000532
0.000505
0.000502
0.000527
0.000497
0.000545
0.000540
0.000492
0.000485
0.000490
0.000510
0.000487
0.000530
0.000525
0.000495
0.000487
0.000495
0.000507
0.000480
0.000490
0.000507
0.000480
0.000515
0.000525
0.000502
0.000482
0.000507
0.000477
0.000485
0.000507
0.000487
0.000512
0.000495
0.000492
0.000512
0.000492
0.000482
0.000522
0.000465
0.000505
0.000520
0.000507
0.000510
0.000525
0.000502
0.000520
0.000510
0.000505
0.000495
0.000505
0.000512
0.000505
0.000485
0.000505
0.000482
0.000482
0.000507
0.000480
0.000497
0.000515
0.000500
0.000505
0.000497
0.000525
0.000465
0.000505
0.000507
0.000492
0.000502
0.000525
0.000510
0.000510
0.000487
0.000505
0.000502
0.000485
0.000480
0.000502
0.000487
0.000515
0.000490
0.000502
0.000497
0.000522
0.000502
0.000540
0.000527
0.000515
0.000497
0.000497
0.000497
0.000512
0.000472
0.000540
0.000517
0.000510
0.000495
0.000497
0.000487
0.000517
0.000502
0.000510
0.000510
0.000502
0.000485
0.000500
0.000510
0.000490
0.000490
0.000517
0.000522
0.000527
0.000517
0.000555
0.000525
0.000522
0.000505
0.000500
0.000495
0.000497
0.000510
0.000477
0.000487
0.000472
0.000467
0.000482
0.000467
0.000497
0.000512
0.000510
0.000535
0.000512
0.000515
0.000530
0.000515
0.000505
0.000530
0.000512
0.000510
0.000517
0.000500
0.000492
0.000507
0.000507
0.000505
0.000515
0.000517
0.000515
0.000482
0.000492
0.000520
0.000490
0.000475
0.000522
0.000495
0.000515
0.000512
0.000492
0.000490
0.000515
0.000515
0.000495
0.000520
0.000527
0.000522
0.000505
0.000507
0.000520
0.000482
0.000507
0.000530
0.000480
0.000490
0.000510
0.000490
0.000507
0.000502
0.000512
0.000502
0.000505
0.000500
0.000495
0.000482
0.000497
0.000490
0.000507
0.000495
0.000507
0.000480
0.000520
0.000510
0.000507
0.000487
0.000507
0.000512
0.000477
0.000487
0.000517
0.000480
0.000500
0.000512
0.000492
0.000502
0.000497
0.000495
0.000532
0.000492
0.000525
0.000507
0.000482
0.000520
0.000502
0.000485
0.000512
0.000490
0.000460
0.000475
0.000482
0.000472
0.000465
0.000472
0.000490
0.000505
0.000517
0.000510
0.000505
0.000515
0.000502
0.000507
0.000522
0.000492
0.000512
0.000490
0.000502
0.000490
0.000482
0.000477
0.000480
0.000477
0.000500
0.000497
0.000510
0.000492
0.000482
0.000492
0.000487
0.000467
0.000505
0.000490
0.000510
0.000492
0.000500
0.000497
0.000505
0.000537
0.000495
0.000510
0.000480
0.000517
0.000502
0.000480
0.000477
0.000487
0.000497
0.000490
0.000500
0.000492
0.000507
0.000502
0.000507
0.000520
0.000497
0.000485
0.000520
0.000515
0.000532
0.000515
0.000525
0.000497
0.000522
0.000505
0.000490
0.000490
0.000490
0.000510
0.000517
0.000502
0.000500
0.000495
0.000517
0.000515
0.000495
0.000490
0.000507
0.000477
0.000475
0.000495
0.000510
0.000495
0.000522
0.000507
0.000512
0.000487
0.000505
0.000505
0.000512
0.000492
0.000485
0.000467
0.000497
0.000495
0.000472
0.000470
0.000507
0.000472
0.000490
0.000477
0.000522
0.000475
0.000497
0.000510
0.000475
0.000490
0.000500
0.000507
0.000517
0.000515
0.000505
0.000497
0.000505
0.000495
0.000510
0.000472
0.000517
0.000490
0.000497
0.000487
0.000480
0.000467
0.000462
0.000470
0.000482
0.000477
0.000502
0.000527
0.000512
0.000480
0.000492
0.000495
0.000510
0.000510
0.000517
0.000510
0.000530
0.000535
0.000505
0.000517
0.000475
0.000475
0.000480
0.000480
0.000485
0.000460
0.000500
0.000477
0.000495
0.000490
0.000510
0.000540
0.000535
0.000567
0.000572
0.000517
0.000505
0.000462
0.000427
0.000457
0.000490
0.000525
0.000560
0.000567
0.000545
0.000517
0.000490
0.000445
0.000507
0.000475
0.000550
0.000537
0.000505
0.000467
0.000425
0.000430
0.000442
0.000532
0.000565
0.000612
0.000620
0.000570
0.000500
0.000452
0.000400
0.000377
0.000420
0.000457
0.000550
0.000530
0.000557
0.000530
0.000520
0.000532
0.000555
0.000535
0.000495
0.000452
0.000385
0.000392
0.000365
0.000430
0.000485
0.000547
0.000567
0.000552
0.000527
0.000492
0.000482
0.000495
0.000520
0.000580
0.000612
0.000590
0.000560
0.000472
0.000410
0.000355
0.000362
0.000422
0.000497
0.000507
0.000540
0.000462
0.000467
0.000445
0.000510
0.000612
0.000640
0.000667
0.000572
0.000470
0.000410
0.000330
0.000317
0.000327
0.000377
0.000357
0.000375
0.000427
0.000487
0.000540
0.000675
0.000760
0.000772
0.000715
0.000680
0.000640
0.000595
0.000597
0.000600
0.000545
0.000542
0.000470
0.000387
0.000377
0.000397
0.000415
0.000445
0.000447
0.000455
0.000392
0.000425
0.000452
0.000475
0.000552
0.000637
0.000650
0.000747
0.000735
0.000677
0.000612
0.000512
0.000420
0.000255
0.000160
0.000132
0.000150
0.000165
0.000282
0.000397
0.000512
0.000655
0.000720
0.000795
0.000835
0.000855
0.000837
0.000810
0.000740
0.000607
0.000412
0.000272
0.000032
-0.000272
-0.000587
-0.001050
-0.001657
-0.002314
-0.002991
-0.003748
-0.004555
-0.005350
-0.006070
-0.006709
-0.007247
-0.007659
-0.007991
-0.008214
-0.008336
-0.008371
-0.008264
-0.008064
-0.007791
-0.007387
-0.006942
-0.006492
-0.006087
-0.005777
-0.005622
-0.005418
-0.005270
-0.005098
-0.004945
-0.004870
-0.004778
-0.004690
-0.004593
-0.004463
-0.004281
-0.004026
-0.003771
-0.003566
-0.003344
-0.003266
-0.003276
-0.003294
-0.003196
-0.003099
-0.003009
-0.002894
-0.002836
-0.002736
-0.002691
-0.002666
-0.002619
-0.002546
-0.002496
-0.002351
-0.002189
-0.002064
-0.001954
-0.001887
-0.001857
-0.001894
-0.001919
-0.001947
-0.001974
-0.001997
-0.002027
-0.002007
-0.001967
-0.001874
-0.001734
-0.001567
-0.001337
-0.001130
-0.000970
-0.000910
-0.000910
-0.001027
-0.001177
-0.001244
-0.001357
-0.001502
-0.001567
-0.001564
-0.001529
-0.001474
-0.001304
-0.001125
-0.000905
-0.000697
-0.000557
-0.000382
-0.000345
-0.000332
-0.000337
-0.000395
-0.000522
-0.000680
-0.000905
-0.001082
-0.001204
-0.001302
-0.001287
-0.001227
-0.001150
-0.001047
-0.000902
-0.000822
-0.000727
-0.000590
-0.000482
-0.000402
-0.000335
-0.000357
-0.000405
-0.000437
-0.000482
-0.000560
-0.000627
-0.000667
-0.000715
-0.000737
-0.000772
-0.000712
-0.000692
-0.000600
-0.000515
-0.000465
-0.000392
-0.000287
-0.000260
-0.000247
-0.000252
-0.000290
-0.000360
-0.000362
-0.000425
-0.000447
-0.000487
-0.000457
-0.000462
-0.000472
-0.000405
-0.000317
-0.000270
-0.000272
-0.000242
-0.000292
-0.000322
-0.000347
-0.000382
-0.000392
-0.000382
-0.000365
-0.000382
-0.000322
-0.000295
-0.000225
-0.000175
-0.000120
-0.000082
-0.000122
-0.000160
-0.000167
-0.000197
-0.000232
-0.000220
-0.000175
-0.000210
-0.000145
-0.000100
-0.000082
-0.000033
-0.000010
-0.000008
0.000012
-0.000023
-0.000048
-0.000080
-0.000092
-0.000137
-0.000225
-0.000350
-0.000402
-0.000485
-0.000492
-0.000415
-0.000357
-0.000252
-0.000125
-0.000080
-0.000020
0.000055
0.000117
0.000115
0.000177
0.000165
0.000130
-0.000008
-0.000045
-0.000097
-0.000155
-0.000182
-0.000175
-0.000157
-0.000140
-0.000142
-0.000140
-0.000100
-0.000048
-0.000005
0.000045
0.000080
0.000117
0.000127
0.000140
0.000135
0.000107
0.000045
0.000005
-0.000060
-0.000152
-0.000170
-0.000170
-0.000170
-0.000147
-0.000102
-0.000080
-0.000045
0.000012
0.000070
0.000127
0.000165
0.000215
0.000257
0.000245
0.000287
0.000240
0.000185
0.000155
0.000105
0.000037
0.000015
0.000010
-0.000040
-0.000077
-0.000092
-0.000127
-0.000105
-0.000043
0.000032
0.000142
0.000227
0.000307
0.000307
0.000290
0.000287
0.000260
0.000192
0.000185
0.000112
0.000005
-0.000065
-0.000095
-0.000107
-0.000105
-0.000043
0.000057
0.000087
0.000200
0.000272
0.000300
0.000325
0.000305
0.000252
0.000200
0.000177
0.000097
0.000045
0.000050
0.000102
0.000090
0.000140
0.000217
0.000167
0.000192
0.000192
0.000182
0.000170
0.000170
0.000180
0.000170
0.000170
0.000177
0.000175
0.000177
0.000202
0.000205
0.000182
0.000230
0.000210
0.000237
0.000232
0.000247
0.000237
0.000182
0.000190
0.000175
0.000132
0.000125
0.000137
0.000122
0.000147
0.000180
0.000210
0.000250
0.000302
0.000335
0.000342
0.000327
0.000297
0.000277
0.000230
0.000207
0.000162
0.000132
0.000122
0.000095
0.000115
0.000132
0.000177
0.000237
0.000305
0.000347
0.000355
0.000377
0.000375
0.000377
0.000317
0.000290
0.000240
0.000197
0.000152
0.000170
0.000115
0.000097
0.000127
0.000197
0.000217
0.000290
0.000342
0.000347
0.000365
0.000385
0.000335
0.000332
0.000302
0.000262
0.000205
0.000187
0.000157
0.000132
0.000132
0.000167
0.000215
0.000265
0.000317
0.000372
0.000360
0.000362
0.000357
0.000357
0.000312
0.000272
0.000230
0.000180
0.000162
0.000175
0.000177
0.000227
0.000270
0.000317
0.000382
0.000447
0.000447
0.000437
0.000450
0.000452
0.000400
0.000360
0.000327
0.000260
0.000202
0.000200
0.000167
0.000172
0.000192
0.000247
0.000267
0.000315
0.000355
0.000352
0.000355
0.000377
0.000377
0.000342
0.000295
0.000332
0.000245
0.000272
0.000320
0.000257
0.000302
0.000335
0.000325
0.000342
0.000327
0.000357
0.000325
0.000340
0.000327
0.000302
0.000242
0.000282
0.000202
0.000182
0.000182
0.000212
0.000210
0.000232
0.000257
0.000300
0.000312
0.000337
0.000352
0.000352
0.000330
0.000295
0.000272
0.000275
0.000262
0.000247
0.000255
0.000282
0.000277
0.000287
0.000312
0.000362
0.000372
0.000380
0.000387
0.000395
0.000382
0.000367
0.000350
0.000335
0.000305
0.000290
0.000272
0.000260
0.000297
0.000267
0.000280
0.000327
0.000337
0.000385
0.000390
0.000392
0.000390
0.000385
0.000357
0.000337
0.000285
0.000257
0.000237
0.000207
0.000245
0.000260
0.000267
0.000285
0.000312
0.000345
0.000365
0.000400
0.000405
0.000387
0.000417
0.000415
0.000360
0.000380
0.000355
0.000322
0.000302
0.000297
0.000280
0.000307
0.000365
0.000405
0.000380
0.000412
0.000400
0.000367
0.000367
0.000352
0.000355
0.000312
0.000290
0.000320
0.000277
0.000290
0.000300
0.000305
0.000322
0.000380
0.000395
0.000372
0.000390
0.000425
0.000390
0.000382
0.000387
0.000360
0.000355
0.000345
0.000325
0.000335
0.000317
0.000355
0.000367
0.000370
0.000410
0.000407
0.000445
0.000460
0.000445
0.000405
0.000365
0.000355
0.000290
0.000280
0.000282
0.000245
0.000255
0.000295
0.000267
0.000310
0.000340
0.000410
0.000420
0.000435
0.000490
0.000482
0.000430
0.000417
0.000395
0.000357
0.000350
0.000362
0.000322
0.000327
0.000340
0.000362
0.000362
0.000397
0.000415
0.000397
0.000402
0.000407
0.000382
0.000357
0.000345
0.000320
0.000270
0.000277
0.000282
0.000282
0.000277
0.000345
0.000352
0.000367
0.000397
0.000422
0.000422
0.000397
0.000425
0.000417
0.000387
0.000387
0.000355
0.000312
0.000317
0.000320
0.000285
0.000335
0.000335
0.000347
0.000382
0.000415
0.000412
0.000450
0.000437
0.000445
0.000427
0.000405
0.000382
0.000390
0.000325
0.000322
0.000325
0.000327
0.000330
0.000352
0.000350
0.000387
0.000392
0.000405
0.000407
0.000412
0.000400
0.000412
0.000377
0.000337
0.000317
0.000305
0.000312
0.000307
0.000300
0.000332
0.000365
0.000375
0.000377
0.000410
0.000415
0.000415
0.000425
0.000432
0.000415
0.000407
0.000397
0.000387
0.000377
0.000350
0.000352
0.000342
0.000352
0.000370
0.000335
0.000405
0.000382
0.000412
0.000405
0.000427
0.000387
0.000375
0.000392
0.000365
0.000382
0.000390
0.000345
0.000380
0.000362
0.000360
0.000380
0.000397
0.000417
0.000372
0.000402
0.000395
0.000380
0.000390
0.000367
0.000392
0.000350
0.000380
0.000362
0.000355
0.000370
0.000350
0.000362
0.000390
0.000387
0.000447
0.000427
0.000457
0.000457
0.000417
0.000412
0.000422
0.000410
0.000362
0.000375
0.000385
0.000370
0.000390
0.000372
0.000410
0.000400
0.000412
0.000400
0.000427
0.000417
0.000435
0.000422
0.000442
0.000430
0.000422
0.000382
0.000397
0.000382
0.000375
0.000372
0.000387
0.000395
0.000402
0.000402
0.000385
0.000395
0.000377
0.000355
0.000357
0.000355
0.000370
0.000347
0.000345
0.000362
0.000380
0.000357
0.000367
0.000390
0.000402
0.000405
0.000432
0.000435
0.000462
0.000410
0.000460
0.000435
0.000460
0.000372
0.000395
0.000382
0.000365
0.000385
0.000385
0.000382
0.000355
0.000387
0.000387
0.000377
0.000390
0.000405
0.000415
0.000435
0.000445
0.000405
0.000410
0.000422
0.000395
0.000390
0.000377
0.000377
0.000362
0.000372
0.000375
0.000367
0.000370
0.000367
0.000387
0.000380
0.000367
0.000387
0.000362
0.000360
0.000390
0.000352
0.000380
0.000390
0.000392
0.000382
0.000402
0.000410
0.000415
0.000412
0.000450
0.000452
0.000445
0.000430
0.000432
0.000372
0.000380
0.000380
0.000375
0.000375
0.000382
0.000397
0.000372
0.000370
0.000375
0.000385
0.000390
0.000392
0.000422
0.000385
0.000405
0.000415
0.000410
0.000397
0.000412
0.000410
0.000417
0.000437
0.000432
0.000447
0.000442
0.000435
0.000420
0.000405
0.000432
0.000412
0.000430
0.000445
0.000437
0.000420
0.000425
0.000425
0.000405
0.000427
0.000420
0.000415
0.000397
0.000395
0.000437
0.000407
0.000415
0.000422
0.000430
0.000430
0.000455
0.000417
0.000462
0.000415
0.000395
0.000397
0.000415
0.000385
0.000390
0.000407
0.000427
0.000425
0.000415
0.000407
0.000417
0.000412
0.000427
0.000390
0.000405
0.000402
0.000372
0.000362
0.000367
0.000382
0.000370
0.000360
0.000387
0.000372
0.000400
0.000390
0.000385
0.000387
0.000410
0.000400
0.000410
0.000397
0.000422
0.000405
0.000385
0.000417
0.000390
0.000392
0.000420
0.000417
0.000410
0.000430
0.000470
0.000412
0.000440
0.000437
0.000452
0.000402
0.000437
0.000440
0.000430
0.000425
0.000442
0.000425
0.000415
0.000440
0.000437
0.000405
0.000442
0.000435
0.000410
0.000427
0.000440
0.000390
0.000382
0.000380
0.000382
0.000377
0.000392
0.000402
0.000420
0.000415
0.000445
0.000420
0.000445
0.000437
0.000452
0.000417
0.000415
0.000462
0.000422
0.000420
0.000432
0.000437
0.000400
0.000397
0.000437
0.000387
0.000427
0.000445
0.000420
0.000452
0.000465
0.000445
0.000425
0.000452
0.000445
0.000397
0.000410
0.000422
0.000400
0.000400
0.000420
0.000387
0.000377
0.000362
0.000385
0.000387
0.000397
0.000392
0.000387
0.000375
0.000400
0.000390
0.000355
0.000397
0.000422
0.000397
0.000420
0.000452
0.000417
0.000382
0.000412
0.000412
0.000435
0.000410
0.000430
0.000427
0.000442
0.000435
0.000445
0.000430
0.000467
0.000455
0.000442
0.000432
0.000435
0.000392
0.000410
0.000420
0.000395
0.000407
0.000417
0.000392
0.000410
0.000402
0.000435
0.000400
0.000415
0.000405
0.000425
0.000415
0.000405
0.000402
0.000417
0.000417
0.000432
0.000405
0.000445
0.000442
0.000430
0.000425
0.000460
0.000427
0.000432
0.000447
0.000435
0.000417
0.000420
0.000427
0.000402
0.000412
0.000445
0.000370
0.000412
0.000402
0.000417
0.000395
0.000422
0.000417
0.000372
0.000382
0.000407
0.000390
0.000412
0.000437
0.000462
0.000450
0.000460
0.000467
0.000467
0.000470
0.000490
0.000462
0.000477
0.000480
0.000437
0.000415
0.000462
0.000442
0.000420
0.000392
0.000472
0.000425
0.000420
0.000432
0.000442
0.000400
0.000410
0.000425
0.000440
0.000377
0.000407
0.000405
0.000395
0.000465
0.000435
0.000405
0.000440
0.000445
0.000427
0.000420
0.000452
0.000435
0.000420
0.000422
0.000457
0.000432
0.000452
0.000465
0.000465
0.000415
0.000477
0.000462
0.000450
0.000480
0.000470
0.000442
0.000457
0.000467
0.000467
0.000445
0.000447
0.000462
0.000405
0.000410
0.000430
0.000405
0.000442
0.000445
0.000460
0.000422
0.000472
0.000472
0.000445
0.000450
0.000475
0.000435
0.000452
0.000477
0.000472
0.000452
0.000457
0.000442
0.000415
0.000435
0.000420
0.000407
0.000415
0.000430
0.000430
0.000440
0.000442
0.000452
0.000447
0.000447
0.000437
0.000415
0.000427
0.000445
0.000417
0.000405
0.000452
0.000422
0.000405
0.000432
0.000425
0.000412
0.000435
0.000430
0.000437
0.000407
0.000450
0.000450
0.000435
0.000417
0.000460
0.000432
0.000435
0.000477
0.000465
0.000427
0.000495
0.000452
0.000452
0.000452
0.000470
0.000450
0.000440
0.000470
0.000472
0.000442
0.000455
0.000437
0.000460
0.000430
0.000452
0.000410
0.000452
0.000440
0.000450
0.000452
0.000475
0.000447
0.000427
0.000432
0.000477
0.000415
0.000427
0.000432
0.000435
0.000410
0.000440
0.000462
0.000435
0.000425
0.000475
0.000407
0.000425
0.000460
0.000427
0.000420
0.000452
0.000447
0.000427
0.000440
0.000457
0.000445
0.000450
0.000482
0.000482
0.000447
0.000470
0.000447
0.000437
0.000425
0.000440
0.000425
0.000420
0.000445
0.000445
0.000405
0.000442
0.000427
0.000390
0.000430
0.000455
0.000422
0.000450
0.000445
0.000437
0.000402
0.000435
0.000427
0.000417
0.000412
0.000457
0.000452
0.000455
0.000445
0.000440
0.000420
0.000437
0.000460
0.000400
0.000382
0.000442
0.000395
0.000397
0.000410
0.000397
0.000415
0.000407
0.000430
0.000455
0.000447
0.000450
0.000435
0.000427
0.000437
0.000445
0.000380
0.000445
0.000417
0.000392
0.000425
0.000417
0.000410
0.000437
0.000435
0.000432
0.000412
0.000445
0.000422
0.000462
0.000402
0.000445
0.000422
0.000402
0.000442
0.000425
0.000397
0.000432
0.000410
0.000390
0.000422
0.000450
0.000400
0.000422
0.000440
0.000427
0.000472
0.000450
0.000432
0.000465
0.000420
0.000482
0.000440
0.000445
0.000485
0.000457
0.000452
0.000472
0.000480
0.000457
0.000447
0.000462
0.000427
0.000442
0.000457
0.000432
0.000400
0.000450
0.000432
0.000432
0.000435
0.000455
0.000420
0.000442
0.000472
0.000462
0.000427
0.000452
0.000457
0.000432
0.000432
0.000470
0.000430
0.000452
0.000437
0.000442
0.000440
0.000452
0.000435
0.000422
0.000415
0.000442
0.000435
0.000412
0.000435
0.000425
0.000417
0.000445
0.000445
0.000432
0.000417
0.000450
0.000440
0.000425
0.000435
0.000450
0.000400
0.000407
0.000407
0.000417
0.000407
0.000410
0.000432
0.000422
0.000447
0.000452
0.000405
0.000470
0.000472
0.000442
0.000445
0.000465
0.000435
0.000442
0.000427
0.000410
0.000427
0.000452
0.000432
0.000460
0.000457
0.000457
0.000472
0.000490
0.000482
0.000475
0.000437
0.000477
0.000452
0.000427
0.000402
0.000412
0.000407
0.000427
0.000445
0.000437
0.000440
0.000440
0.000430
0.000467
0.000455
0.000472
0.000455
0.000450
0.000465
0.000450
0.000417
0.000452
0.000420
0.000410
0.000395
0.000425
0.000407
0.000435
0.000407
0.000420
0.000422
0.000427
0.000432
0.000452
0.000425
0.000482
0.000442
0.000455
0.000490
0.000470
0.000427
0.000480
0.000462
0.000447
0.000442
0.000450
0.000452
0.000470
0.000452
0.000467
0.000445
0.000462
0.000445
0.000465
0.000457
0.000482
0.000460
0.000470
0.000485
0.000482
0.000467
0.000487
0.000472
0.000430
0.000410
0.000460
0.000462
0.000457
0.000445
0.000465
0.000480
0.000435
0.000437
0.000455
0.000455
0.000470
0.000442
0.000470
0.000435
0.000477
0.000445
0.000482
0.000460
0.000442
0.000462
0.000485
0.000455
0.000465
0.000432
0.000477
0.000432
0.000442
0.000422
0.000432
0.000430
0.000437
0.000452
0.000450
0.000457
0.000455
0.000435
0.000435
0.000440
0.000437
0.000465
0.000465
0.000470
0.000470
0.000475
0.000477
0.000475
0.000480
0.000442
0.000465
0.000447
0.000450
0.000465
0.000440
0.000442
0.000442
0.000435
0.000420
0.000430
0.000422
0.000445
0.000465
0.000465
0.000472
0.000467
0.000467
0.000450
0.000472
0.000470
0.000477
0.000457
0.000457
0.000435
0.000437
0.000465
0.000430
0.000425
0.000440
0.000442
0.000460
0.000455
0.000485
0.000437
0.000455
0.000452
0.000447
0.000492
0.000437
0.000417
0.000455
0.000422
0.000457
0.000467
0.000462
0.000485
0.000450
0.000460
0.000495
0.000487
0.000447
0.000450
0.000467
0.000432
0.000462
0.000417
0.000440
0.000455
0.000460
0.000430
0.000472
0.000457
0.000432
0.000450
0.000480
0.000435
0.000452
0.000427
0.000452
0.000460
0.000467
0.000460
0.000475
0.000477
0.000477
0.000477
0.000505
0.000465
0.000485
0.000455
0.000475
0.000457
0.000450
0.000432
0.000455
0.000425
0.000445
0.000452
0.000455
0.000455
0.000442
0.000450
0.000462
0.000420
0.000442
0.000457
0.000437
0.000435
0.000447
0.000412
0.000452
0.000420
0.000450
0.000422
0.000457
0.000455
0.000472
0.000460
0.000480
0.000472
0.000437
0.000470
0.000460
0.000445
0.000470
0.000455
0.000467
0.000452
0.000477
0.000450
0.000480
0.000472
0.000467
0.000432
0.000452
0.000447
0.000442
0.000407
0.000435
0.000432
0.000460
0.000432
0.000475
0.000440
0.000435
0.000445
0.000437
0.000457
0.000477
0.000472
0.000497
0.000482
0.000497
0.000457
0.000472
0.000480
0.000485
0.000440
0.000445
0.000465
0.000467
0.000460
0.000477
0.000455
0.000440
0.000447
0.000452
0.000422
0.000412
0.000427
0.000440
0.000407
0.000437
0.000422
0.000447
0.000427
0.000440
0.000450
0.000480
0.000475
0.000462
0.000467
0.000472
0.000457
0.000445
0.000467
0.000452
0.000410
0.000447
0.000450
0.000445
0.000450
0.000450
0.000437
0.000447
0.000435
0.000445
0.000427
0.000452
0.000437
0.000440
0.000455
0.000470
0.000425
0.000442
0.000445
0.000437
0.000445
0.000462
0.000435
0.000445
0.000437
0.000447
0.000407
0.000432
0.000415
0.000440
0.000440
0.000450
0.000470
0.000482
0.000470
0.000480
0.000452
0.000462
0.000437
0.000477
0.000420
0.000457
0.000440
0.000410
0.000432
0.000450
0.000447
0.000440
0.000450
0.000477
0.000422
0.000467
0.000455
0.000445
0.000437
0.000457
0.000467
0.000460
0.000455
0.000455
0.000432
0.000472
0.000452
0.000445
0.000455
0.000450
0.000432
0.000440
0.000475
0.000475
0.000445
0.000465
0.000465
0.000455
0.000455
0.000482
0.000452
0.000457
0.000455
0.000435
0.000427
0.000480
0.000437
0.000455
0.000472
0.000450
0.000450
0.000467
0.000457
0.000480
0.000465
0.000457
0.000475
0.000462
0.000455
0.000477
0.000435
0.000460
0.000500
0.000475
0.000462
0.000480
0.000440
0.000417
0.000437
0.000452
0.000432
0.000447
0.000435
0.000445
0.000427
0.000462
0.000462
0.000425
0.000457
0.000510
0.000462
0.000457
0.000480
0.000477
0.000442
0.000457
0.000427
0.000437
0.000442
0.000445
0.000445
0.000437
0.000427
0.000465
0.000442
0.000470
0.000487
0.000465
0.000467
0.000495
0.000447
0.000450
0.000477
0.000460
0.000440
0.000440
0.000425
0.000445
0.000405
0.000445
0.000420
0.000440
0.000470
0.000485
0.000450
0.000470
0.000490
0.000455
0.000465
0.000520
0.000497
0.000510
0.000522
0.000515
0.000472
0.000525
0.000470
0.000472
0.000492
0.000472
0.000455
0.000450
0.000497
0.000497
0.000457
0.000492
0.000497
0.000487
0.000500
0.000502
0.000462
0.000450
0.000470
0.000450
0.000470
0.000445
0.000452
0.000440
0.000445
0.000472
0.000437
0.000457
0.000470
0.000475
0.000412
0.000465
0.000462
0.000437
0.000455
0.000467
0.000445
0.000440
0.000440
0.000465
0.000455
0.000475
0.000445
0.000440
0.000460
0.000450
0.000440
0.000467
0.000475
0.000497
0.000432
0.000467
0.000505
0.000440
0.000467
0.000477
0.000487
0.000475
0.000482
0.000490
0.000467
0.000487
0.000465
0.000475
0.000467
0.000455
0.000442
0.000450
0.000467
0.000457
0.000460
0.000480
0.000495
0.000467
0.000432
0.000457
0.000462
0.000485
0.000472
0.000495
0.000445
0.000465
0.000462
0.000432
0.000475
0.000480
0.000455
0.000472
0.000467
0.000480
0.000460
0.000475
0.000457
0.000455
0.000445
0.000472
0.000445
0.000430
0.000437
0.000495
0.000472
0.000465
0.000445
0.000432
0.000445
0.000427
0.000412
0.000457
0.000450
0.000442
0.000425
0.000457
0.000470
0.000467
0.000482
0.000480
0.000467
0.000457
0.000455
0.000465
0.000437
0.000450
0.000447
0.000472
0.000465
0.000455
0.000442
0.000435
0.000450
0.000465
0.000432
0.000485
0.000457
0.000472
0.000480
0.000507
0.000480
0.000465
0.000495
0.000467
0.000497
0.000477
0.000472
0.000482
0.000455
0.000482
0.000455
0.000465
0.000450
0.000482
0.000435
0.000477
0.000490
0.000475
0.000470
0.000482
0.000465
0.000465
0.000470
0.000495
0.000472
0.000495
0.000485
0.000460
0.000462
0.000460
0.000447
0.000437
0.000467
0.000455
0.000435
0.000427
0.000445
0.000457
0.000417
0.000480
0.000465
0.000502
0.000497
0.000485
0.000480
0.000507
0.000507
0.000517
0.000515
0.000492
0.000480
0.000480
0.000495
0.000470
0.000467
0.000477
0.000492
0.000462
0.000435
0.000470
0.000447
0.000450
0.000432
0.000482
0.000470
0.000460
0.000467
0.000487
0.000460
0.000467
0.000452
0.000470
0.000450
0.000460
0.000427
0.000435
0.000460
0.000442
0.000457
0.000487
0.000470
0.000460
0.000475
0.000485
0.000485
0.000502
0.000495
0.000472
0.000477
0.000480
0.000477
0.000457
0.000470
0.000470
0.000432
0.000477
0.000460
0.000442
0.000460
0.000465
0.000460
0.000467
0.000472
0.000470
0.000470
0.000462
0.000457
0.000455
0.000460
0.000460
0.000440
0.000487
0.000437
0.000472
0.000427
0.000482
0.000455
0.000457
0.000472
0.000477
0.000495
0.000505
0.000482
0.000497
0.000477
0.000517
0.000495
0.000507
0.000500
0.000497
0.000472
0.000467
0.000477
0.000502
0.000467
0.000465
0.000502
0.000472
0.000497
0.000490
0.000462
0.000512
0.000490
0.000475
0.000495
0.000495
0.000467
0.000465
0.000430
0.000460
0.000430
0.000430
0.000457
0.000462
0.000450
0.000472
0.000480
0.000477
0.000460
0.000492
0.000492
0.000500
0.000477
0.000517
0.000490
0.000510
0.000482
0.000495
0.000507
0.000470
0.000485
0.000472
0.000467
0.000490
0.000430
0.000455
0.000460
0.000460
0.000450
0.000477
0.000457
0.000460
0.000465
0.000465
0.000487
0.000467
0.000490
0.000485
0.000462
0.000487
0.000492
0.000482
0.000467
0.000472
0.000485
0.000490
0.000477
0.000482
0.000450
0.000487
0.000472
0.000485
0.000462
0.000472
0.000472
0.000472
0.000462
0.000480
0.000460
0.000442
0.000487
0.000472
0.000467
0.000465
0.000462
0.000490
0.000455
0.000472
0.000467
0.000472
0.000457
0.000475
0.000470
0.000460
0.000457
0.000435
0.000460
0.000450
0.000482
0.000460
0.000437
0.000465
0.000450
0.000470
0.000470
0.000480
0.000460
0.000482
0.000472
0.000472
0.000490
0.000470
0.000475
0.000495
0.000467
0.000487
0.000475
0.000487
0.000477
0.000500
0.000467
0.000500
0.000487
0.000490
0.000465
0.000472
0.000455
0.000470
0.000482
0.000490
0.000495
0.000515
0.000497
0.000490
0.000487
0.000490
0.000465
0.000492
0.000487
0.000462
0.000465
0.000485
0.000467
0.000457
0.000455
0.000470
0.000487
0.000482
0.000480
0.000497
0.000485
0.000480
0.000495
0.000492
0.000462
0.000515
0.000495
0.000492
0.000470
0.000487
0.000455
0.000467
0.000477
0.000467
0.000472
0.000467
0.000460
0.000452
0.000475
0.000457
0.000472
0.000472
0.000450
0.000482
0.000472
0.000480
0.000477
0.000457
0.000462
0.000462
0.000457
0.000510
0.000460
0.000467
0.000475
0.000475
0.000480
0.000467
0.000470
0.000495
0.000455
0.000447
0.000432
0.000445
0.000425
0.000435
0.000412
0.000467
0.000452
0.000432
0.000445
0.000465
0.000477
0.000495
0.000505
0.000475
0.000490
0.000502
0.000502
0.000500
0.000482
0.000487
0.000477
0.000482
0.000467
0.000455
0.000467
0.000475
0.000457
0.000502
0.000497
0.000525
0.000495
0.000502
0.000490
0.000500
0.000490
0.000472
0.000460
0.000470
0.000460
0.000470
0.000442
0.000460
0.000460
0.000477
0.000447
0.000447
0.000470
0.000455
0.000465
0.000477
0.000492
0.000442
0.000455
0.000480
0.000455
0.000482
0.000490
0.000485
0.000470
0.000482
0.000470
0.000465
0.000470
0.000485
0.000452
0.000465
0.000470
0.000470
0.000452
0.000470
0.000490
0.000457
0.000475
0.000495
0.000467
0.000477
0.000480
0.000472
0.000487
0.000475
0.000480
0.000465
0.000470
0.000467
0.000475
0.000465
0.000480
0.000485
0.000460
0.000470
0.000480
0.000437
0.000447
0.000492
0.000455
0.000442
0.000457
0.000465
0.000480
0.000467
0.000502
0.000490
0.000480
0.000477
0.000482
0.000472
0.000455
0.000445
0.000447
0.000450
0.000452
0.000440
0.000470
0.000477
0.000447
0.000442
0.000465
0.000495
0.000472
0.000457
0.000470
0.000497
0.000477
0.000492
0.000505
0.000490
0.000510
0.000490
0.000497
0.000495
0.000482
0.000472
0.000457
0.000492
0.000480
0.000477
0.000487
0.000472
0.000487
0.000492
0.000480
0.000492
0.000475
0.000490
0.000492
0.000475
0.000485
0.000492
0.000465
0.000497
0.000485
0.000480
0.000480
0.000495
0.000485
0.000485
0.000475
0.000497
0.000462
0.000467
0.000457
0.000455
0.000495
0.000480
0.000500
0.000467
0.000475
0.000487
0.000477
0.000480
0.000482
0.000482
0.000475
0.000515
0.000500
0.000517
0.000502
0.000495
0.000482
0.000462
0.000447
0.000455
0.000480
0.000490
0.000470
0.000477
0.000480
0.000477
0.000472
0.000492
0.000472
0.000462
0.000500
0.000495
0.000477
0.000467
0.000482
0.000460
0.000470
0.000525
0.000477
0.000472
0.000460
0.000467
0.000465
0.000455
0.000485
0.000465
0.000445
0.000472
0.000502
0.000470
0.000502
0.000487
0.000485
0.000492
0.000505
0.000490
0.000487
0.000495
0.000470
0.000480
0.000475
0.000507
0.000465
0.000482
0.000490
0.000500
0.000482
0.000465
0.000480
0.000482
0.000492
0.000515
0.000482
0.000465
0.000472
0.000507
0.000487
0.000492
0.000472
0.000475
0.000480
0.000505
0.000492
0.000477
0.000485
0.000522
0.000465
0.000502
0.000522
0.000490
0.000477
0.000500
0.000515
0.000480
0.000477
0.000500
0.000462
0.000467
0.000495
0.000495
0.000487
0.000520
0.000475
0.000467
0.000485
0.000495
0.000455
0.000502
0.000470
0.000475
0.000462
0.000475
0.000470
0.000452
0.000450
0.000480
0.000465
0.000470
0.000475
0.000465
0.000462
0.000465
0.000467
0.000475
0.000492
0.000487
0.000475
0.000457
0.000500
0.000507
0.000485
0.000515
0.000495
0.000475
0.000470
0.000485
0.000480
0.000477
0.000482
0.000482
0.000487
0.000495
0.000480
0.000505
0.000500
0.000490
0.000492
0.000495
0.000492
0.000480
0.000465
0.000520
0.000480
0.000495
0.000495
0.000485
0.000490
0.000455
0.000465
0.000490
0.000470
0.000480
0.000457
0.000475
0.000477
0.000467
0.000450
0.000472
0.000472
0.000487
0.000445
0.000465
0.000435
0.000437
0.000467
0.000465
0.000465
0.000477
0.000457
0.000470
0.000462
0.000475
0.000480
0.000502
0.000495
0.000502
0.000490
0.000497
0.000485
0.000492
0.000462
0.000497
0.000470
0.000462
0.000505
0.000480
0.000477
0.000485
0.000465
0.000485
0.000465
0.000510
0.000485
0.000507
0.000495
0.000502
0.000497
0.000487
0.000507
0.000480
0.000462
0.000492
0.000465
0.000467
0.000472
0.000487
0.000495
0.000517
0.000485
0.000482
0.000480
0.000467
0.000472
0.000475
0.000477
0.000472
0.000457
0.000457
0.000482
0.000470
0.000442
0.000490
0.000470
0.000450
0.000472
0.000462
0.000432
0.000457
0.000472
0.000457
0.000460
0.000495
0.000477
0.000490
0.000517
0.000515
0.000467
0.000505
0.000520
0.000487
0.000517
0.000505
0.000485
0.000485
0.000467
0.000505
0.000467
0.000472
0.000467
0.000492
0.000475
0.000455
0.000487
0.000462
0.000502
0.000487
0.000467
0.000492
0.000492
0.000472
0.000475
0.000492
0.000480
0.000500
0.000490
0.000507
0.000487
0.000467
0.000487
0.000462
0.000462
0.000477
0.000490
0.000487
0.000465
0.000455
0.000440
0.000477
0.000475
0.000442
0.000435
0.000465
0.000425
0.000450
0.000440
0.000447
0.000437
0.000477
0.000475
0.000480
0.000482
0.000510
0.000495
0.000490
0.000507
0.000502
0.000487
0.000500
0.000492
0.000487
0.000477
0.000475
0.000457
0.000467
0.000470
0.000497
0.000495
0.000475
0.000470
0.000487
0.000487
0.000482
0.000482
0.000502
0.000502
0.000472
0.000482
0.000492
0.000492
0.000502
0.000490
0.000500
0.000482
0.000485
0.000497
0.000500
0.000480
0.000492
0.000462
0.000472
0.000462
0.000482
0.000492
0.000485
0.000510
0.000485
0.000482
0.000487
0.000457
0.000485
0.000480
0.000495
0.000495
0.000492
0.000462
0.000460
0.000475
0.000477
0.000475
0.000497
0.000520
0.000495
0.000497
0.000515
0.000482
0.000485
0.000472
0.000477
0.000470
0.000487
0.000470
0.000487
0.000482
0.000482
0.000455
0.000472
0.000462
0.000495
0.000497
0.000480
0.000472
0.000505
0.000455
0.000495
0.000475
0.000475
0.000507
0.000490
0.000475
0.000445
0.000447
0.000460
0.000432
0.000447
0.000440
0.000465
0.000485
0.000475
0.000497
0.000460
0.000485
0.000480
0.000465
0.000470
0.000505
0.000465
0.000472
0.000480
0.000460
0.000460
0.000455
0.000465
0.000465
0.000467
0.000495
0.000485
0.000490
0.000507
0.000487
0.000495
0.000505
0.000502
0.000477
0.000470
0.000477
0.000455
0.000450
0.000477
0.000470
0.000470
0.000485
0.000492
0.000480
0.000465
0.000500
0.000507
0.000497
0.000482
0.000490
0.000462
0.000482
0.000507
0.000477
0.000485
0.000485
0.000490
0.000485
0.000477
0.000477
0.000475
0.000472
0.000482
0.000482
0.000465
0.000495
0.000487
0.000470
0.000492
0.000497
0.000467
0.000525
0.000502
0.000460
0.000470
0.000477
0.000485
0.000472
0.000470
0.000490
0.000480
0.000485
0.000482
0.000462
0.000452
0.000485
0.000505
0.000472
0.000497
0.000510
0.000487
0.000475
0.000495
0.000467
0.000455
0.000490
0.000485
0.000485
0.000475
0.000465
0.000495
0.000470
0.000485
0.000477
0.000490
0.000492
0.000527
0.000475
0.000492
0.000507
0.000522
0.000472
0.000515
0.000465
0.000475
0.000460
0.000445
0.000455
0.000460
0.000490
0.000495
0.000450
0.000490
0.000487
0.000485
0.000462
0.000517
0.000482
0.000482
0.000502
0.000487
0.000472
0.000505
0.000487
0.000472
0.000467
0.000490
0.000470
0.000455
0.000487
0.000507
0.000485
0.000487
0.000500
0.000472
0.000492
0.000507
0.000505
0.000507
0.000482
0.000500
0.000490
0.000495
0.000495
0.000500
0.000510
0.000502
0.000467
0.000487
0.000515
0.000487
0.000482
0.000472
0.000470
0.000467
0.000470
0.000505
0.000492
0.000487
0.000512
0.000485
0.000480
0.000515
0.000502
0.000512
0.000495
0.000482
0.000495
0.000475
0.000495
0.000502
0.000497
0.000475
0.000485
0.000482
0.000487
0.000522
0.000475
0.000490
0.000495
0.000472
0.000490
0.000492
0.000482
0.000475
0.000510
0.000475
0.000492
0.000507
0.000502
0.000495
0.000495
0.000500
0.000472
0.000507
0.000507
0.000492
0.000472
0.000485
0.000485
0.000480
0.000492
0.000490
0.000465
0.000480
0.000512
0.000490
0.000495
0.000512
0.000477
0.000462
0.000472
0.000490
0.000510
0.000497
0.000502
0.000505
0.000485
0.000490
0.000507
0.000482
0.000495
0.000482
0.000490
0.000492
0.000500
0.000490
0.000472
0.000500
0.000497
0.000500
0.000505
0.000500
0.000475
0.000450
0.000492
0.000505
0.000487
0.000512
0.000517
0.000507
0.000490
0.000517
0.000480
0.000472
0.000492
0.000482
0.000482
0.000540
0.000492
0.000480
0.000490
0.000482
0.000525
0.000470
0.000490
0.000510
0.000480
0.000485
0.000487
0.000500
0.000465
0.000515
0.000485
0.000497
0.000497
0.000515
0.000495
0.000525
0.000502
0.000490
0.000470
0.000507
0.000492
0.000472
0.000502
0.000515
0.000495
0.000457
0.000507
0.000490
0.000477
0.000497
0.000482
0.000442
0.000495
0.000485
0.000450
0.000475
0.000500
0.000490
0.000495
0.000495
0.000500
0.000480
0.000467
0.000475
0.000462
0.000470
0.000477
0.000502
0.000465
0.000505
0.000497
0.000492
0.000515
0.000515
0.000500
0.000507
0.000530
0.000510
0.000512
0.000512
0.000482
0.000472
0.000475
0.000497
0.000485
0.000482
0.000480
0.000492
0.000477
0.000477
0.000500
0.000495
0.000500
0.000502
0.000482
0.000505
0.000487
0.000512
0.000485
0.000505
0.000495
0.000472
0.000490
0.000495
0.000497
0.000487
0.000502
0.000502
0.000470
0.000490
0.000475
0.000497
0.000502
0.000495
0.000487
0.000502
0.000492
0.000490
0.000480
0.000490
0.000510
0.000465
0.000445
0.000482
0.000460
0.000455
0.000482
0.000465
0.000475
0.000487
0.000450
0.000477
0.000465
0.000457
0.000475
0.000487
0.000502
0.000507
0.000485
0.000502
0.000490
0.000485
0.000465
0.000490
0.000480
0.000475
0.000475
0.000482
0.000507
0.000475
0.000477
0.000482
0.000480
0.000505
0.000452
0.000465
0.000492
0.000465
0.000485
0.000477
0.000502
0.000470
0.000487
0.000522
0.000512
0.000497
0.000510
0.000495
0.000492
0.000515
0.000480
0.000480
0.000480
0.000475
0.000452
0.000477
0.000495
0.000457
0.000460
0.000477
0.000445
0.000465
0.000460
0.000470
0.000452
0.000475
0.000480
0.000505
0.000462
0.000515
0.000475
0.000480
0.000515
0.000485
0.000462
0.000487
0.000477
0.000465
0.000462
0.000482
0.000475
0.000477
0.000472
0.000520
0.000475
0.000472
0.000485
0.000502
0.000480
0.000505
0.000492
0.000482
0.000510
0.000522
0.000490
0.000475
0.000525
0.000502
0.000477
0.000512
0.000487
0.000472
0.000490
0.000480
0.000460
0.000465
0.000472
0.000485
0.000465
0.000492
0.000495
0.000475
0.000497
0.000515
0.000480
0.000517
0.000537
0.000492
0.000502
0.000515
0.000480
0.000462
0.000472
0.000510
0.000477
0.000485
0.000490
0.000490
0.000487
0.000472
0.000480
0.000425
0.000470
0.000505
0.000485
0.000487
0.000507
0.000492
0.000475
0.000515
0.000500
0.000497
0.000480
0.000517
0.000480
0.000475
0.000480
0.000500
0.000467
0.000492
0.000482
0.000460
0.000452
0.000497
0.000460
0.000477
0.000467
0.000492
0.000462
0.000490
0.000520
0.000502
0.000490
0.000492
0.000490
0.000507
0.000512
0.000525
0.000495
0.000482
0.000482
0.000470
0.000472
0.000487
0.000485
0.000477
0.000490
0.000507
0.000472
0.000480
0.000505
0.000497
0.000495
0.000500
0.000497
0.000482
0.000510
0.000520
0.000497
0.000467
0.000487
0.000487
0.000482
0.000525
0.000510
0.000475
0.000487
0.000485
0.000497
0.000502
0.000487
0.000482
0.000505
0.000497
0.000487
0.000470
0.000465
0.000505
0.000492
0.000487
0.000532
0.000490
0.000477
0.000477
0.000467
0.000487
0.000480
0.000477
0.000480
0.000502
0.000482
0.000480
0.000480
0.000470
0.000475
0.000472
0.000470
0.000510
0.000445
0.000452
0.000477
0.000435
0.000435
0.000465
0.000447
0.000472
0.000452
0.000462
0.000472
0.000477
0.000472
0.000500
0.000467
0.000500
0.000502
0.000517
0.000485
0.000507
0.000485
0.000462
0.000465
0.000500
0.000467
0.000475
0.000480
0.000470
0.000485
0.000470
0.000475
0.000485
0.000465
0.000507
0.000492
0.000492
0.000502
0.000482
0.000507
0.000515
0.000490
0.000502
0.000505
0.000500
0.000502
0.000482
0.000482
0.000482
0.000490
0.000490
0.000460
0.000500
0.000470
0.000472
0.000485
0.000465
0.000485
0.000447
0.000470
0.000490
0.000472
0.000505
0.000490
0.000485
0.000472
0.000487
0.000482
0.000492
0.000480
0.000500
0.000492
0.000475
0.000487
0.000467
0.000482
0.000517
0.000525
0.000515
0.000512
0.000525
0.000495
0.000515
0.000480
0.000490
0.000487
0.000460
0.000497
0.000480
0.000467
0.000485
0.000485
0.000492
0.000482
0.000477
0.000460
0.000507
0.000472
0.000490
0.000480
0.000487
0.000500
0.000482
0.000477
0.000507
0.000465
0.000470
0.000507
0.000505
0.000502
0.000517
0.000505
0.000525
0.000507
0.000500
0.000492
0.000500
0.000475
0.000482
0.000457
0.000477
0.000500
0.000467
0.000475
0.000512
0.000492
0.000500
0.000505
0.000492
0.000485
0.000527
0.000505
0.000497
0.000505
0.000492
0.000492
0.000490
0.000502
0.000500
0.000482
0.000490
0.000485
0.000475
0.000477
0.000510
0.000490
0.000485
0.000512
0.000495
0.000517
0.000507
0.000520
0.000515
0.000497
0.000507
0.000485
0.000500
0.000485
0.000502
0.000470
0.000492
0.000492
0.000487
0.000502
0.000512
0.000475
0.000500
0.000505
0.000502
0.000517
0.000510
0.000512
0.000500
0.000510
0.000482
0.000507
0.000480
0.000497
0.000487
0.000472
0.000515
0.000482
0.000462
0.000467
0.000495
0.000440
0.000477
0.000470
0.000457
0.000455
0.000477
0.000482
0.000457
0.000497
0.000480
0.000465
0.000495
0.000487
0.000475
0.000482
0.000502
0.000492
0.000487
0.000472
0.000507
0.000467
0.000470
0.000490
0.000470
0.000447
0.000477
0.000465
0.000485
0.000492
0.000480
0.000502
0.000490
0.000502
0.000515
0.000465
0.000517
0.000507
0.000487
0.000487
0.000520
0.000507
0.000470
0.000492
0.000515
0.000450
0.000502
0.000510
0.000497
0.000512
0.000515
0.000497
0.000482
0.000507
0.000490
0.000480
0.000485
0.000492
0.000487
0.000487
0.000512
0.000507
0.000475
0.000495
0.000502
0.000465
0.000490
0.000470
0.000472
0.000500
0.000462
0.000492
0.000445
0.000485
0.000485
0.000457
0.000490
0.000502
0.000490
0.000485
0.000510
0.000532
0.000487
0.000510
0.000512
0.000477
0.000495
0.000482
0.000492
0.000495
0.000477
0.000492
0.000517
0.000502
0.000490
0.000470
0.000510
0.000505
0.000517
0.000485
0.000495
0.000497
0.000477
0.000470
0.000475
0.000507
0.000497
0.000472
0.000482
0.000467
0.000477
0.000470
0.000477
0.000477
0.000482
0.000490
0.000510
0.000500
0.000487
0.000482
0.000517
0.000480
0.000452
0.000480
0.000480
0.000480
0.000475
0.000472
0.000490
0.000490
0.000462
0.000495
0.000472
0.000480
0.000497
0.000465
0.000500
0.000490
0.000492
0.000490
0.000515
0.000497
0.000497
0.000495
0.000500
0.000477
0.000492
0.000490
0.000485
0.000520
0.000487
0.000502
0.000502
0.000495
0.000490
0.000485
0.000502
0.000452
0.000462
0.000467
0.000502
0.000485
0.000467
0.000495
0.000487
0.000470
0.000485
0.000490
0.000487
0.000480
0.000502
0.000490
0.000500
0.000490
0.000477
0.000487
0.000522
0.000502
0.000482
0.000482
0.000510
0.000492
0.000470
0.000497
0.000485
0.000477
0.000482
0.000482
0.000465
0.000475
0.000457
0.000470
0.000475
0.000505
0.000490
0.000495
0.000492
0.000512
0.000515
0.000480
0.000510
0.000497
0.000477
0.000522
0.000502
0.000497
0.000512
0.000510
0.000502
0.000507
0.000515
0.000492
0.000502
0.000492
0.000482
0.000475
0.000472
0.000467
0.000480
0.000480
0.000530
0.000497
0.000477
0.000510
0.000510
0.000487
0.000495
0.000467
0.000492
0.000477
0.000460
0.000457
0.000480
0.000475
0.000507
0.000457
0.000480
0.000512
0.000507
0.000492
0.000515
0.000500
0.000492
0.000510
0.000517
0.000512
0.000507
0.000500
0.000492
0.000485
0.000507
0.000482
0.000510
0.000505
0.000500
0.000497
0.000520
0.000480
0.000505
0.000485
0.000502
0.000492
0.000487
0.000505
0.000497
0.000517
0.000520
0.000487
0.000512
0.000487
0.000505
0.000485
0.000495
0.000495
0.000495
0.000480
0.000500
0.000497
0.000490
0.000470
0.000505
0.000495
0.000470
0.000507
0.000482
0.000490
0.000485
0.000467
0.000517
0.000477
0.000517
0.000495
0.000497
0.000500
0.000487
0.000512
0.000530
0.000535
0.000495
0.000492
0.000525
0.000505
0.000500
0.000492
0.000507
0.000500
0.000495
0.000487
0.000450
0.000487
0.000492
0.000457
0.000487
0.000477
0.000520
0.000492
0.000510
0.000510
0.000472
0.000480
0.000502
0.000482
0.000470
0.000477
0.000492
0.000507
0.000505
0.000500
0.000507
0.000480
0.000502
0.000505
0.000515
0.000507
0.000505
0.000492
0.000497
0.000487
0.000505
0.000487
0.000490
0.000495
0.000482
0.000512
0.000495
0.000472
0.000487
0.000475
0.000517
0.000485
0.000487
0.000490
0.000497
0.000477
0.000460
0.000487
0.000475
0.000482
0.000492
0.000485
0.000497
0.000492
0.000487
0.000477
0.000495
0.000492
0.000502
0.000485
0.000527
0.000495
0.000505
0.000505
0.000502
0.000510
0.000517
0.000520
0.000512
0.000497
0.000497
0.000477
0.000480
0.000475
0.000490
0.000492
0.000490
0.000487
0.000500
0.000482
0.000500
0.000482
0.000490
0.000487
0.000502
0.000500
0.000495
0.000495
0.000480
0.000490
0.000482
0.000475
0.000487
0.000472
0.000467
0.000490
0.000452
0.000462
0.000482
0.000505
0.000482
0.000477
0.000495
0.000475
0.000512
0.000505
0.000492
0.000485
0.000492
0.000472
0.000505
0.000490
0.000510
0.000495
0.000492
0.000475
0.000515
0.000490
0.000485
0.000515
0.000517
0.000507
0.000502
0.000482
0.000490
0.000512
0.000485
0.000472
0.000497
0.000502
0.000512
0.000520
0.000492
0.000515
0.000472
0.000487
0.000502
0.000487
0.000485
0.000502
0.000495
0.000480
0.000490
0.000470
0.000477
0.000475
0.000477
0.000502
0.000492
0.000482
0.000495
0.000480
0.000500
0.000510
0.000502
0.000485
0.000530
0.000517
0.000495
0.000525
0.000485
0.000505
0.000487
0.000490
0.000520
0.000500
0.000487
0.000490
0.000500
0.000470
0.000490
0.000510
0.000490
0.000520
0.000520
0.000495
0.000497
0.000497
0.000507
0.000487
0.000490
0.000507
0.000495
0.000482
0.000480
0.000450
0.000457
0.000480
0.000462
0.000470
0.000502
0.000500
0.000515
0.000502
0.000497
0.000490
0.000475
0.000487
0.000490
0.000500
0.000495
0.000525
0.000495
0.000495
0.000522
0.000497
0.000495
0.000507
0.000527
0.000505
0.000492
0.000490
0.000487
0.000472
0.000475
0.000457
0.000482
0.000477
0.000495
0.000477
0.000467
0.000490
0.000492
0.000480
0.000507
0.000482
0.000482
0.000490
0.000515
0.000510
0.000482
0.000485
0.000497
0.000497
0.000492
0.000492
0.000527
0.000477
0.000510
0.000512
0.000505
0.000530
0.000502
0.000500
0.000502
0.000495
0.000467
0.000472
0.000487
0.000507
0.000492
0.000492
0.000507
0.000497
0.000532
0.000495
0.000515
0.000525
0.000490
0.000502
0.000515
0.000520
0.000525
0.000480
0.000502
0.000500
0.000480
0.000457
0.000500
0.000487
0.000490
0.000495
0.000480
0.000505
0.000485
0.000480
0.000495
0.000495
0.000492
0.000517
0.000497
0.000495
0.000525
0.000477
0.000472
0.000512
0.000520
0.000522
0.000475
0.000492
0.000502
0.000512
0.000505
0.000520
0.000487
0.000507
0.000507
0.000510
0.000505
0.000527
0.000500
0.000510
0.000517
0.000460
0.000465
0.000480
0.000475
0.000487
0.000497
0.000495
0.000500
0.000487
0.000487
0.000500
0.000500
0.000487
0.000517
0.000507
0.000510
0.000487
0.000480
0.000515
0.000505
0.000485
0.000502
0.000495
0.000505
0.000502
0.000505
0.000507
0.000475
0.000462
0.000492
0.000482
0.000492
0.000495
0.000495
0.000482
0.000470
0.000500
0.000507
0.000500
0.000502
0.000470
0.000515
0.000497
0.000492
0.000495
0.000502
0.000497
0.000502
0.000487
0.000505
0.000520
0.000487
0.000505
0.000485
0.000482
0.000480
0.000492
0.000497
0.000480
0.000535
0.000495
0.000520
0.000525
0.000512
0.000502
0.000502
0.000472
0.000492
0.000490
0.000485
0.000477
0.000487
0.000532
0.000497
0.000505
0.000515
0.000492
0.000482
0.000480
0.000502
0.000497
0.000470
0.000500
0.000460
0.000487
0.000492
0.000475
0.000505
0.000475
0.000505
0.000497
0.000492
0.000510
0.000485
0.000495
0.000507
0.000497
0.000470
0.000475
0.000492
0.000462
0.000460
0.000490
0.000465
0.000492
0.000477
0.000462
0.000485
0.000470
0.000492
0.000487
0.000485
0.000492
0.000480
0.000492
0.000502
0.000472
0.000475
0.000465
0.000510
0.000470
0.000495
0.000480
0.000472
0.000465
0.000510
0.000490
0.000500
0.000507
0.000520
0.000512
0.000492
0.000530
0.000500
0.000515
0.000515
0.000532
0.000512
0.000510
0.000520
0.000500
0.000485
0.000517
0.000492
0.000490
0.000517
0.000487
0.000487
0.000497
0.000492
0.000475
0.000490
0.000477
0.000522
0.000480
0.000525
0.000502
0.000490
0.000500
0.000517
0.000502
0.000500
0.000510
0.000502
0.000490
0.000510
0.000492
0.000480
0.000480
0.000497
0.000480
0.000480
0.000492
0.000507
0.000505
0.000510
0.000522
0.000460
0.000500
0.000505
0.000502
0.000510
0.000505
0.000527
0.000482
0.000487
0.000497
0.000462
0.000480
0.000502
0.000520
0.000510
0.000507
0.000520
0.000510
0.000490
0.000510
0.000520
0.000467
0.000490
0.000477
0.000440
t0(sec) = 0.000000E+0
dt(sec) = 4.000000E-10
F4:INSP "
DESCRIPTOR_NAME    : WAVEDESC           
TEMPLATE_NAME      : LECROY_2_3         
COMM_TYPE          : word               
COMM_ORDER         : HIFIRST            
WAVE_DESCRIPTOR    : 346                
USER_TEXT          : 0                  
RES_DESC1          : 0                  
TRIGTIME_ARRAY     : 0                  
RIS_TIME_ARRAY     : 0                  
RES_ARRAY1         : 0                  
WAVE_ARRAY_1       : 9932               
WAVE_ARRAY_2       : 0                  
RES_ARRAY2         : 0                  
RES_ARRAY3         : 0                  
INSTRUMENT_NAME    : LECROYHDO6104      
INSTRUMENT_NUMBER  : 6308               
TRACE_LABEL        :                    
RESERVED1          : 4966               
RESERVED2          : 0                  
WAVE_ARRAY_COUNT   : 4966               
PNTS_PER_SCREEN    : 5000               
FIRST_VALID_PNT    : 0                  
LAST_VALID_PNT     : 4965               
FIRST_POINT        : 0                  
SPARSING_FACTOR    : 1                  
SEGMENT_INDEX      : 0                  
SUBARRAY_COUNT     : 1                  
SWEEPS_PER_ACQ     : 200                
POINTS_PER_PAIR    : 0                  
PAIR_OFFSET        : 0                  
VERTICAL_GAIN      : 2.6238e-006        
VERTICAL_OFFSET    : 6.8001e-002        
MAX_VALUE          : 2.7366e+004        
MIN_VALUE          : 1.2377e+004        
NOMINAL_BITS       : 16                 
NOM_SUBARRAY_COUNT : 1                  
HORIZ_INTERVAL     : 4.0000e-010        
HORIZ_OFFSET       : -2.00000000e-007   
PIXEL_OFFSET       : -2.14000000e-007   
VERTUNIT           : Unit Name = V
HORUNIT            : Unit Name = S
HORIZ_UNCERTAINTY  : 1.0000e-012        
TRIGGER_TIME       : Date = APR 17, 2024, Time = 19:33:12.105208305
ACQ_DURATION       : 1.0199e+001        
RECORD_TYPE        : single_sweep       
PROCESSING_DONE    : no_processing      
RESERVED5          : 0                  
RIS_SWEEPS         : 1                  
TIMEBASE           : 200_ns/div         
VERT_COUPLING      : DC_50_Ohms         
PROBE_ATT          : 1.0000e+000        
FIXED_VERT_GAIN    : 5_mV/div           
BANDWIDTH_LIMIT    : off                
VERTICAL_VERNIER   : 1.0000e+000        
ACQ_VERT_OFFSET    : 0.0000e+000        
WAVE_SOURCE        : UNKNOWN            
"
0.000627
0.000598
0.000590
0.000590
0.000601
0.000630
0.000622
0.000609
0.000645
0.000609
0.000606
0.000585
0.000580
0.000572
0.000603
0.000590
0.000648
0.000624
0.000640
0.000632
0.000640
0.000627
0.000627
0.000611
0.000635
0.000638
0.000630
0.000638
0.000640
0.000648
0.000648
0.000603
0.000614
0.000569
0.000582
0.000585
0.000575
0.000601
0.000601
0.000614
0.000658
0.000619
0.000611
0.000601
0.000614
0.000624
0.000609
0.000585
0.000638
0.000635
0.000596
0.000614
0.000658
0.000645
0.000627
0.000632
0.000630
0.000611
0.000656
0.000645
0.000674
0.000640
0.000601
0.000648
0.000627
0.000577
0.000559
0.000543
0.000606
0.000632
0.000632
0.000664
0.000640
0.000648
0.000603
0.000622
0.000614
0.000585
0.000614
0.000638
0.000630
0.000640
0.000656
0.000666
0.000638
0.000627
0.000651
0.000601
0.000622
0.000619
0.000611
0.000590
0.000606
0.000627
0.000598
0.000603
0.000627
0.000635
0.000627
0.000653
0.000648
0.000658
0.000632
0.000632
0.000635
0.000603
0.000627
0.000624
0.000635
0.000614
0.000590
0.000643
0.000617
0.000624
0.000651
0.000614
0.000643
0.000614
0.000622
0.000656
0.000645
0.000617
0.000622
0.000630
0.000653
0.000669
0.000661
0.000624
0.000627
0.000575
0.000611
0.000603
0.000598
0.000559
0.000564
0.000593
0.000561
0.000588
0.000603
0.000582
0.000590
0.000617
0.000648
0.000617
0.000627
0.000614
0.000598
0.000601
0.000617
0.000611
0.000627
0.000630
0.000622
0.000619
0.000617
0.000590
0.000624
0.000598
0.000603
0.000606
0.000598
0.000617
0.000606
0.000609
0.000630
0.000624
0.000666
0.000622
0.000635
0.000627
0.000635
0.000624
0.000645
0.000630
0.000606
0.000630
0.000640
0.000640
0.000627
0.000624
0.000635
0.000627
0.000622
0.000619
0.000643
0.000619
0.000643
0.000622
0.000643
0.000619
0.000624
0.000632
0.000627
0.000635
0.000614
0.000614
0.000648
0.000643
0.000632
0.000656
0.000645
0.000601
0.000606
0.000617
0.000596
0.000611
0.000643
0.000632
0.000622
0.000643
0.000645
0.000638
0.000617
0.000645
0.000640
0.000582
0.000617
0.000640
0.000614
0.000614
0.000630
0.000640
0.000643
0.000603
0.000614
0.000630
0.000627
0.000598
0.000580
0.000617
0.000632
0.000577
0.000556
0.000580
0.000611
0.000606
0.000648
0.000648
0.000619
0.000632
0.000643
0.000622
0.000624
0.000593
0.000614
0.000614
0.000593
0.000593
0.000556
0.000517
0.000506
0.000569
0.000561
0.000538
0.000593
0.000582
0.000596
0.000601
0.000585
0.000624
0.000609
0.000609
0.000658
0.000596
0.000635
0.000622
0.000617
0.000614
0.000640
0.000656
0.000632
0.000635
0.000630
0.000617
0.000624
0.000603
0.000656
0.000645
0.000627
0.000630
0.000627
0.000593
0.000596
0.000593
0.000609
0.000630
0.000622
0.000627
0.000640
0.000638
0.000630
0.000609
0.000609
0.000601
0.000645
0.000611
0.000635
0.000679
0.000614
0.000611
0.000614
0.000567
0.000596
0.000564
0.000554
0.000543
0.000577
0.000632
0.000614
0.000638
0.000638
0.000651
0.000627
0.000640
0.000648
0.000619
0.000630
0.000630
0.000638
0.000635
0.000624
0.000619
0.000619
0.000598
0.000606
0.000643
0.000645
0.000601
0.000635
0.000609
0.000619
0.000601
0.000585
0.000617
0.000609
0.000619
0.000640
0.000645
0.000638
0.000635
0.000632
0.000619
0.000564
0.000603
0.000622
0.000596
0.000590
0.000582
0.000593
0.000611
0.000627
0.000619
0.000619
0.000640
0.000627
0.000638
0.000648
0.000617
0.000617
0.000617
0.000619
0.000577
0.000546
0.000540
0.000601
0.000609
0.000635
0.000588
0.000561
0.000572
0.000577
0.000617
0.000632
0.000648
0.000645
0.000622
0.000598
0.000535
0.000519
0.000514
0.000551
0.000582
0.000603
0.000611
0.000606
0.000609
0.000617
0.000596
0.000617
0.000611
0.000651
0.000643
0.000635
0.000648
0.000614
0.000593
0.000611
0.000632
0.000638
0.000624
0.000645
0.000624
0.000656
0.000622
0.000638
0.000627
0.000617
0.000632
0.000614
0.000603
0.000564
0.000527
0.000496
0.000540
0.000619
0.000596
0.000622
0.000643
0.000648
0.000627
0.000661
0.000661
0.000656
0.000603
0.000577
0.000569
0.000580
0.000580
0.000611
0.000690
0.000711
0.000700
0.000700
0.000679
0.000627
0.000561
0.000572
0.000575
0.000614
0.000617
0.000585
0.000572
0.000538
0.000530
0.000575
0.000598
0.000645
0.000685
0.000732
0.000708
0.000653
0.000653
0.000664
0.000632
0.000645
0.000630
0.000609
0.000593
0.000564
0.000556
0.000603
0.000658
0.000693
0.000687
0.000606
0.000512
0.000451
0.000456
0.000472
0.000506
0.000603
0.000677
0.000690
0.000672
0.000679
0.000716
0.000721
0.000727
0.000716
0.000609
0.000498
0.000459
0.000443
0.000475
0.000580
0.000632
0.000687
0.000632
0.000635
0.000643
0.000687
0.000774
0.000805
0.000845
0.000756
0.000651
0.000554
0.000467
0.000412
0.000412
0.000438
0.000451
0.000428
0.000399
0.000417
0.000488
0.000627
0.000745
0.000889
0.000924
0.000850
0.000763
0.000706
0.000632
0.000619
0.000614
0.000606
0.000535
0.000449
0.000386
0.000401
0.000512
0.000716
0.000892
0.000976
0.000952
0.000868
0.000750
0.000690
0.000653
0.000624
0.000606
0.000596
0.000519
0.000454
0.000443
0.000530
0.000638
0.000724
0.000750
0.000721
0.000703
0.000645
0.000632
0.000638
0.000700
0.000724
0.000640
0.000572
0.000399
-0.000074
-0.000714
-0.001336
-0.002136
-0.003652
-0.006313
-0.009787
-0.013290
-0.016580
-0.019382
-0.022179
-0.024979
-0.027293
-0.028954
-0.030494
-0.032178
-0.033112
-0.033023
-0.033278
-0.033645
-0.033018
-0.032582
-0.032265
-0.030596
-0.029103
-0.029229
-0.028802
-0.027875
-0.027532
-0.027135
-0.025863
-0.025047
-0.025467
-0.025296
-0.023982
-0.022998
-0.022840
-0.021754
-0.020665
-0.020870
-0.020673
-0.019634
-0.018716
-0.018411
-0.018146
-0.017952
-0.018272
-0.018154
-0.017042
-0.016283
-0.016060
-0.015349
-0.014675
-0.014735
-0.014777
-0.014051
-0.013040
-0.012710
-0.012426
-0.011797
-0.011437
-0.011120
-0.010989
-0.011359
-0.011272
-0.010508
-0.010026
-0.010047
-0.010312
-0.010624
-0.010532
-0.009963
-0.009587
-0.009685
-0.010031
-0.010152
-0.009656
-0.009044
-0.008669
-0.008640
-0.008971
-0.008911
-0.008294
-0.007990
-0.008223
-0.008360
-0.008375
-0.008386
-0.008583
-0.008391
-0.007793
-0.007299
-0.006972
-0.006767
-0.007103
-0.007444
-0.006911
-0.006205
-0.005988
-0.006166
-0.006266
-0.006329
-0.006607
-0.006979
-0.007076
-0.007079
-0.007024
-0.006659
-0.006093
-0.005917
-0.006205
-0.006200
-0.005793
-0.005628
-0.005830
-0.005804
-0.005812
-0.005917
-0.005618
-0.005358
-0.005667
-0.006001
-0.005775
-0.005463
-0.005389
-0.005148
-0.004565
-0.004453
-0.004639
-0.004327
-0.004159
-0.004434
-0.004634
-0.004565
-0.004744
-0.005148
-0.004962
-0.004403
-0.004353
-0.004998
-0.005116
-0.004728
-0.004605
-0.004589
-0.004311
-0.004324
-0.004830
-0.005004
-0.004369
-0.003862
-0.003965
-0.003967
-0.003731
-0.003828
-0.004353
-0.004796
-0.004618
-0.004185
-0.004093
-0.004248
-0.004342
-0.004429
-0.004363
-0.004062
-0.003744
-0.003708
-0.003589
-0.003154
-0.003059
-0.003401
-0.003516
-0.003104
-0.002886
-0.003175
-0.003568
-0.003915
-0.004167
-0.004104
-0.003962
-0.003917
-0.003799
-0.003469
-0.003282
-0.003277
-0.003403
-0.003398
-0.003246
-0.003275
-0.003629
-0.003807
-0.003592
-0.003424
-0.003406
-0.003219
-0.002850
-0.002813
-0.003101
-0.003306
-0.003338
-0.003314
-0.003117
-0.002724
-0.002453
-0.002697
-0.003175
-0.003416
-0.003351
-0.003327
-0.003398
-0.003443
-0.003306
-0.003023
-0.002611
-0.002406
-0.002335
-0.002403
-0.002692
-0.003159
-0.003078
-0.002813
-0.003012
-0.003225
-0.002873
-0.002574
-0.002619
-0.002582
-0.002207
-0.002146
-0.002382
-0.002377
-0.002175
-0.002104
-0.002002
-0.001745
-0.001745
-0.001984
-0.002152
-0.002031
-0.002081
-0.002485
-0.002495
-0.002112
-0.001976
-0.002159
-0.002123
-0.001999
-0.002031
-0.002201
-0.002123
-0.001866
-0.001782
-0.001787
-0.001855
-0.001881
-0.001923
-0.001929
-0.001719
-0.001566
-0.001687
-0.001942
-0.001934
-0.001713
-0.001354
-0.000989
-0.000945
-0.001194
-0.001370
-0.001288
-0.001204
-0.001267
-0.001364
-0.001572
-0.001999
-0.002149
-0.001816
-0.001650
-0.001863
-0.001908
-0.001674
-0.001669
-0.001706
-0.001551
-0.001498
-0.001692
-0.001671
-0.001301
-0.001160
-0.001393
-0.001729
-0.002007
-0.002055
-0.001897
-0.001734
-0.001758
-0.001614
-0.001330
-0.001236
-0.001367
-0.001333
-0.001010
-0.000989
-0.001228
-0.001309
-0.001346
-0.001488
-0.001614
-0.001498
-0.001412
-0.001635
-0.001779
-0.001706
-0.001627
-0.001553
-0.001448
-0.001406
-0.001383
-0.001225
-0.001183
-0.001223
-0.001115
-0.000929
-0.001044
-0.001325
-0.001538
-0.001514
-0.001385
-0.001283
-0.001301
-0.001202
-0.001220
-0.001304
-0.001249
-0.000939
-0.000871
-0.000937
-0.000913
-0.000882
-0.000903
-0.000987
-0.001092
-0.001191
-0.001239
-0.001296
-0.001315
-0.001249
-0.001197
-0.001065
-0.000879
-0.000690
-0.000567
-0.000635
-0.000813
-0.001071
-0.001278
-0.001233
-0.001186
-0.001176
-0.001065
-0.000934
-0.000900
-0.000829
-0.000853
-0.000698
-0.000614
-0.000640
-0.000575
-0.000554
-0.000638
-0.000656
-0.000740
-0.000842
-0.000926
-0.001023
-0.000892
-0.000601
-0.000729
-0.000997
-0.001039
-0.001036
-0.001092
-0.001113
-0.000874
-0.000648
-0.000688
-0.000653
-0.000541
-0.000593
-0.000685
-0.000701
-0.000850
-0.001105
-0.001210
-0.000947
-0.000695
-0.000640
-0.000677
-0.000674
-0.000758
-0.000806
-0.000926
-0.001181
-0.001286
-0.001225
-0.001036
-0.000785
-0.000577
-0.000635
-0.000806
-0.000813
-0.000882
-0.001086
-0.001047
-0.001002
-0.001113
-0.001081
-0.000861
-0.000619
-0.000415
-0.000165
-0.000123
-0.000404
-0.000677
-0.000617
-0.000459
-0.000307
-0.000223
-0.000234
-0.000318
-0.000323
-0.000331
-0.000328
-0.000488
-0.000701
-0.000790
-0.000638
-0.000569
-0.000680
-0.000748
-0.000669
-0.000732
-0.000955
-0.000926
-0.000756
-0.000842
-0.000971
-0.000858
-0.000706
-0.000672
-0.000580
-0.000425
-0.000402
-0.000585
-0.000580
-0.000449
-0.000551
-0.000750
-0.000874
-0.000798
-0.000627
-0.000527
-0.000407
-0.000415
-0.000569
-0.000743
-0.000727
-0.000614
-0.000554
-0.000509
-0.000357
-0.000315
-0.000478
-0.000619
-0.000559
-0.000567
-0.000572
-0.000462
-0.000362
-0.000278
-0.000273
-0.000273
-0.000302
-0.000286
-0.000328
-0.000475
-0.000769
-0.001039
-0.000963
-0.000753
-0.000659
-0.000680
-0.000769
-0.000924
-0.000992
-0.000994
-0.000853
-0.000764
-0.000588
-0.000354
-0.000247
-0.000181
-0.000160
-0.000192
-0.000297
-0.000349
-0.000247
-0.000199
-0.000325
-0.000423
-0.000381
-0.000409
-0.000661
-0.000745
-0.000559
-0.000470
-0.000467
-0.000365
-0.000268
-0.000283
-0.000276
-0.000241
-0.000234
-0.000278
-0.000315
-0.000320
-0.000239
-0.000218
-0.000276
-0.000307
-0.000302
-0.000205
-0.000102
-0.000220
-0.000559
-0.000661
-0.000459
-0.000331
-0.000543
-0.000701
-0.000640
-0.000609
-0.000661
-0.000714
-0.000682
-0.000648
-0.000493
-0.000252
-0.000268
-0.000365
-0.000310
-0.000165
-0.000123
-0.000228
-0.000370
-0.000543
-0.000632
-0.000517
-0.000291
-0.000291
-0.000328
-0.000244
-0.000226
-0.000262
-0.000247
-0.000354
-0.000464
-0.000506
-0.000399
-0.000186
-0.000076
-0.000105
-0.000189
-0.000281
-0.000349
-0.000454
-0.000373
-0.000265
-0.000362
-0.000771
-0.000829
-0.000485
-0.000234
-0.000252
-0.000165
-0.000192
-0.000472
-0.000646
-0.000501
-0.000399
-0.000596
-0.000740
-0.000653
-0.000496
-0.000333
-0.000218
-0.000205
-0.000349
-0.000367
-0.000333
-0.000268
-0.000223
-0.000257
-0.000289
-0.000333
-0.000480
-0.000520
-0.000373
-0.000231
-0.000339
-0.000480
-0.000522
-0.000464
-0.000244
0.000034
0.000079
-0.000163
-0.000276
-0.000158
-0.000021
-0.000129
-0.000304
-0.000304
-0.000331
-0.000323
-0.000268
-0.000265
-0.000333
-0.000320
-0.000184
-0.000032
0.000039
0.000094
0.000068
0.000047
0.000018
0.000058
-0.000058
-0.000160
-0.000108
-0.000068
-0.000202
-0.000391
-0.000441
-0.000352
-0.000276
-0.000349
-0.000499
-0.000457
-0.000294
-0.000158
-0.000100
0.000013
0.000018
-0.000066
-0.000087
0.000016
-0.000087
-0.000307
-0.000352
-0.000218
-0.000197
-0.000286
-0.000346
-0.000247
-0.000144
-0.000129
-0.000257
-0.000312
-0.000268
-0.000218
-0.000276
-0.000247
-0.000047
0.000042
-0.000032
-0.000058
-0.000018
-0.000032
-0.000150
-0.000192
-0.000134
-0.000299
-0.000394
-0.000194
-0.000018
-0.000152
-0.000310
-0.000281
-0.000276
-0.000344
-0.000276
-0.000134
-0.000158
-0.000215
-0.000034
0.000094
0.000050
0.000021
0.000079
-0.000034
-0.000260
-0.000341
-0.000262
-0.000223
-0.000223
-0.000134
0.000042
-0.000047
-0.000213
-0.000139
-0.000037
-0.000024
0.000024
0.000121
0.000084
0.000008
-0.000129
-0.000223
-0.000297
-0.000344
-0.000325
-0.000268
-0.000210
-0.000118
-0.000037
-0.000042
-0.000108
-0.000218
-0.000488
-0.000703
-0.000627
-0.000381
-0.000220
-0.000205
-0.000184
-0.000047
-0.000113
-0.000399
-0.000593
-0.000562
-0.000499
-0.000485
-0.000318
-0.000095
-0.000026
0.000039
0.000126
0.000131
-0.000058
-0.000097
0.000010
0.000060
0.000076
0.000045
0.000029
0.000115
0.000079
-0.000079
-0.000241
-0.000236
-0.000047
-0.000039
-0.000158
-0.000129
-0.000092
-0.000134
-0.000144
-0.000102
-0.000121
-0.000346
-0.000449
-0.000291
-0.000165
-0.000084
0.000045
0.000134
0.000092
-0.000003
-0.000137
-0.000213
-0.000262
-0.000213
-0.000095
-0.000018
0.000052
0.000050
-0.000013
-0.000045
-0.000039
0.000005
-0.000011
-0.000186
-0.000320
-0.000291
-0.000283
-0.000417
-0.000506
-0.000462
-0.000333
-0.000163
-0.000047
0.000144
0.000241
0.000168
0.000076
0.000102
0.000152
0.000123
0.000118
0.000186
0.000163
0.000089
-0.000063
-0.000150
-0.000129
-0.000000
0.000031
0.000042
0.000058
0.000073
0.000018
-0.000021
0.000055
0.000115
-0.000024
-0.000171
-0.000018
0.000063
-0.000113
-0.000236
-0.000081
-0.000039
-0.000163
-0.000089
0.000021
-0.000097
-0.000210
-0.000079
0.000034
-0.000024
-0.000144
-0.000163
-0.000076
0.000052
0.000160
0.000173
0.000071
-0.000000
-0.000018
0.000076
0.000123
0.000123
0.000121
0.000073
-0.000084
-0.000163
-0.000173
-0.000215
-0.000262
-0.000234
-0.000220
-0.000333
-0.000320
-0.000139
-0.000058
-0.000150
-0.000297
-0.000341
-0.000310
-0.000184
-0.000050
0.000058
0.000079
0.000123
0.000178
0.000226
0.000107
0.000018
0.000058
0.000131
0.000142
0.000178
0.000149
-0.000050
-0.000131
-0.000084
-0.000102
-0.000241
-0.000244
-0.000126
-0.000205
-0.000312
-0.000260
-0.000226
-0.000360
-0.000325
-0.000126
0.000024
0.000003
0.000092
0.000281
0.000275
0.000186
0.000265
0.000338
0.000202
0.000115
0.000186
0.000212
0.000178
0.000123
0.000107
0.000071
0.000018
0.000021
-0.000087
-0.000231
-0.000234
-0.000089
-0.000042
0.000016
0.000037
-0.000008
-0.000215
-0.000349
-0.000294
-0.000192
-0.000047
0.000128
0.000223
0.000147
0.000024
0.000039
0.000087
-0.000026
-0.000116
-0.000155
-0.000081
-0.000039
-0.000074
-0.000137
-0.000215
-0.000226
-0.000150
-0.000074
-0.000055
-0.000060
0.000037
0.000092
0.000160
0.000163
0.000144
0.000128
0.000037
0.000045
0.000134
0.000131
0.000149
0.000102
0.000055
-0.000000
-0.000037
0.000073
0.000212
0.000236
0.000168
0.000144
0.000155
0.000315
0.000393
0.000299
0.000199
0.000092
-0.000039
-0.000108
-0.000013
0.000052
-0.000034
-0.000008
0.000218
0.000215
0.000071
0.000050
0.000087
-0.000060
-0.000147
-0.000000
0.000081
0.000066
0.000155
0.000207
-0.000071
-0.000412
-0.000283
-0.000011
-0.000000
-0.000076
-0.000092
-0.000029
0.000021
0.000039
0.000107
0.000094
0.000013
-0.000029
0.000037
0.000126
0.000131
0.000126
0.000176
0.000173
0.000186
0.000268
0.000310
0.000197
0.000115
0.000144
0.000128
0.000139
0.000184
0.000003
-0.000213
-0.000160
0.000087
0.000118
0.000034
0.000113
0.000307
0.000207
0.000037
0.000031
0.000021
0.000005
-0.000011
0.000107
0.000034
-0.000129
-0.000084
0.000058
0.000105
-0.000011
-0.000008
0.000160
0.000260
0.000170
0.000181
0.000034
-0.000121
-0.000262
-0.000210
-0.000084
0.000034
0.000047
-0.000045
-0.000021
0.000026
0.000034
0.000060
0.000081
0.000060
0.000005
-0.000011
-0.000034
-0.000016
-0.000013
-0.000097
-0.000147
-0.000097
-0.000176
-0.000102
0.000165
0.000373
0.000404
0.000302
0.000257
0.000191
0.000121
0.000126
0.000178
0.000066
-0.000076
0.000073
0.000184
0.000081
-0.000053
-0.000121
-0.000218
-0.000236
-0.000026
0.000134
0.000005
-0.000089
0.000118
0.000149
-0.000003
0.000021
0.000191
0.000289
0.000257
0.000425
0.000530
0.000349
0.000160
0.000197
0.000252
0.000202
0.000178
0.000210
0.000076
0.000052
0.000186
0.000247
0.000197
0.000165
0.000118
0.000066
-0.000003
0.000016
0.000066
0.000113
-0.000000
0.000042
0.000194
0.000236
0.000094
0.000076
0.000079
-0.000013
-0.000163
-0.000147
0.000005
-0.000037
-0.000126
0.000063
0.000223
0.000160
0.000073
0.000194
0.000186
0.000155
0.000239
0.000257
0.000105
-0.000034
-0.000079
-0.000029
0.000013
0.000076
0.000084
0.000081
0.000081
0.000118
0.000194
0.000268
0.000296
0.000205
0.000055
0.000066
0.000186
0.000310
0.000257
0.000205
0.000126
0.000160
0.000165
0.000210
0.000289
0.000283
0.000233
0.000197
0.000220
0.000241
0.000131
0.000084
0.000097
0.000165
0.000202
0.000281
0.000365
0.000299
0.000207
0.000275
0.000278
0.000210
0.000126
0.000055
-0.000011
-0.000055
0.000024
0.000215
0.000281
0.000147
0.000068
0.000092
0.000110
0.000084
-0.000079
-0.000236
-0.000205
0.000016
0.000142
0.000178
0.000142
0.000128
0.000113
0.000176
0.000336
0.000307
0.000278
0.000331
0.000328
0.000273
0.000123
0.000047
0.000113
0.000212
0.000236
0.000155
0.000107
0.000194
0.000152
-0.000003
-0.000029
0.000060
0.000055
0.000107
0.000265
0.000346
0.000283
0.000228
0.000207
0.000105
-0.000013
-0.000050
-0.000021
0.000037
0.000147
0.000231
0.000191
0.000113
0.000050
0.000097
0.000144
0.000168
0.000231
0.000262
0.000239
0.000241
0.000257
0.000233
0.000212
0.000247
0.000184
0.000089
0.000113
0.000262
0.000257
0.000097
0.000055
0.000142
0.000152
0.000197
0.000296
0.000386
0.000378
0.000401
0.000464
0.000459
0.000273
0.000084
0.000058
0.000087
0.000066
0.000063
0.000005
-0.000026
0.000052
0.000152
0.000202
0.000186
0.000052
0.000034
0.000170
0.000328
0.000323
0.000194
0.000113
0.000115
0.000024
0.000073
0.000220
0.000283
0.000257
0.000317
0.000320
0.000294
0.000265
0.000278
0.000241
0.000165
0.000149
0.000186
0.000212
0.000317
0.000378
0.000310
0.000296
0.000399
0.000428
0.000317
0.000170
0.000021
-0.000024
0.000066
0.000071
0.000076
0.000157
0.000126
0.000079
0.000123
0.000157
0.000118
0.000186
0.000270
0.000157
0.000031
0.000029
0.000066
-0.000050
0.000005
0.000199
0.000299
0.000302
0.000283
0.000320
0.000312
0.000244
0.000134
0.000071
0.000168
0.000312
0.000357
0.000262
0.000189
0.000173
0.000189
0.000178
0.000165
0.000050
-0.000008
0.000058
0.000081
0.000071
0.000094
0.000139
0.000231
0.000265
0.000168
0.000047
0.000076
0.000155
0.000197
0.000257
0.000383
0.000396
0.000331
0.000289
0.000320
0.000328
0.000291
0.000184
0.000157
0.000168
0.000212
0.000220
0.000173
0.000231
0.000257
0.000241
0.000212
0.000186
0.000212
0.000149
0.000128
0.000215
0.000262
0.000128
0.000157
0.000375
0.000422
0.000173
0.000168
0.000323
0.000273
0.000210
0.000296
0.000407
0.000281
0.000134
0.000233
0.000291
0.000231
0.000157
0.000249
0.000186
-0.000055
-0.000087
0.000170
0.000380
0.000338
0.000270
0.000210
0.000142
0.000147
0.000076
0.000016
-0.000053
0.000026
0.000079
0.000115
0.000191
0.000207
0.000113
0.000115
0.000228
0.000289
0.000286
0.000317
0.000333
0.000262
0.000273
0.000281
0.000249
0.000228
0.000126
-0.000037
0.000045
0.000310
0.000393
0.000346
0.000331
0.000325
0.000333
0.000273
0.000165
0.000037
0.000026
0.000194
0.000241
0.000168
0.000244
0.000370
0.000359
0.000275
0.000283
0.000244
0.000152
0.000144
0.000136
0.000168
0.000184
0.000317
0.000412
0.000380
0.000352
0.000449
0.000459
0.000328
0.000307
0.000407
0.000446
0.000352
0.000325
0.000331
0.000173
-0.000047
-0.000045
0.000115
0.000212
0.000199
0.000262
0.000333
0.000307
0.000241
0.000291
0.000294
0.000168
0.000081
0.000139
0.000207
0.000094
0.000029
0.000178
0.000296
0.000173
0.000018
0.000113
0.000260
0.000249
0.000223
0.000359
0.000354
0.000186
0.000254
0.000357
0.000247
0.000060
0.000102
0.000257
0.000310
0.000336
0.000462
0.000443
0.000325
0.000184
0.000176
0.000136
0.000197
0.000328
0.000380
0.000338
0.000401
0.000530
0.000519
0.000391
0.000346
0.000317
0.000155
0.000055
0.000170
0.000220
0.000199
0.000270
0.000341
0.000296
0.000289
0.000346
0.000338
0.000186
0.000223
0.000275
0.000249
0.000079
0.000034
0.000047
0.000128
0.000249
0.000257
0.000205
0.000170
0.000239
0.000341
0.000249
0.000144
0.000194
0.000275
0.000304
0.000236
0.000197
0.000142
0.000089
-0.000018
-0.000178
-0.000194
-0.000063
0.000160
0.000247
0.000194
0.000223
0.000286
0.000262
0.000249
0.000144
0.000128
0.000110
0.000142
0.000197
0.000262
0.000265
0.000352
0.000393
0.000454
0.000451
0.000443
0.000407
0.000365
0.000291
0.000273
0.000289
0.000231
0.000223
0.000317
0.000391
0.000291
0.000302
0.000506
0.000525
0.000422
0.000401
0.000506
0.000472
0.000380
0.000404
0.000346
0.000257
0.000283
0.000331
0.000325
0.000241
0.000357
0.000393
0.000296
0.000178
0.000126
0.000194
0.000281
0.000373
0.000433
0.000386
0.000357
0.000349
0.000207
0.000047
0.000013
0.000029
0.000021
0.000005
0.000163
0.000233
0.000270
0.000223
0.000275
0.000286
0.000228
0.000089
0.000076
0.000157
0.000197
0.000199
0.000249
0.000291
0.000260
0.000202
0.000249
0.000365
0.000373
0.000325
0.000252
0.000302
0.000286
0.000231
0.000299
0.000370
0.000302
0.000197
0.000223
0.000310
0.000378
0.000430
0.000483
0.000493
0.000420
0.000383
0.000399
0.000367
0.000391
0.000414
0.000417
0.000317
0.000338
0.000404
0.000375
0.000273
0.000254
0.000278
0.000296
0.000291
0.000336
0.000344
0.000357
0.000393
0.000328
0.000278
0.000331
0.000420
0.000414
0.000354
0.000449
0.000501
0.000443
0.000338
0.000241
0.000131
0.000131
0.000307
0.000393
0.000328
0.000302
0.000317
0.000331
0.000260
0.000142
0.000071
0.000005
0.000063
0.000281
0.000380
0.000393
0.000446
0.000443
0.000359
0.000341
0.000375
0.000438
0.000420
0.000451
0.000441
0.000438
0.000451
0.000428
0.000386
0.000344
0.000357
0.000344
0.000296
0.000291
0.000273
0.000215
0.000136
0.000210
0.000294
0.000278
0.000236
0.000205
0.000178
0.000205
0.000220
0.000249
0.000226
0.000331
0.000378
0.000370
0.000414
0.000514
0.000459
0.000391
0.000412
0.000443
0.000344
0.000233
0.000226
0.000244
0.000231
0.000191
0.000097
0.000123
0.000152
0.000176
0.000233
0.000268
0.000307
0.000236
0.000149
0.000134
0.000050
-0.000034
-0.000011
0.000139
0.000228
0.000336
0.000417
0.000430
0.000412
0.000349
0.000289
0.000312
0.000380
0.000375
0.000323
0.000315
0.000401
0.000409
0.000346
0.000383
0.000414
0.000367
0.000273
0.000215
0.000197
0.000247
0.000291
0.000286
0.000144
0.000084
0.000105
0.000139
0.000202
0.000231
0.000202
0.000218
0.000373
0.000485
0.000430
0.000409
0.000370
0.000296
0.000181
0.000147
0.000191
0.000233
0.000249
0.000331
0.000386
0.000386
0.000260
0.000184
0.000228
0.000304
0.000349
0.000404
0.000362
0.000254
0.000128
0.000134
0.000223
0.000268
0.000249
0.000296
0.000412
0.000420
0.000331
0.000304
0.000362
0.000401
0.000333
0.000252
0.000283
0.000260
0.000170
0.000105
0.000089
0.000097
0.000105
0.000163
0.000247
0.000289
0.000304
0.000370
0.000346
0.000380
0.000399
0.000446
0.000425
0.000365
0.000349
0.000383
0.000393
0.000281
0.000181
0.000257
0.000331
0.000304
0.000275
0.000315
0.000349
0.000370
0.000299
0.000268
0.000191
0.000050
-0.000058
0.000068
0.000126
0.000163
0.000252
0.000333
0.000325
0.000315
0.000307
0.000275
0.000281
0.000388
0.000401
0.000354
0.000380
0.000485
0.000428
0.000310
0.000299
0.000362
0.000323
0.000270
0.000378
0.000386
0.000307
0.000346
0.000575
0.000506
0.000302
0.000268
0.000328
0.000289
0.000254
0.000254
0.000212
0.000087
0.000045
0.000147
0.000149
0.000212
0.000302
0.000338
0.000278
0.000152
0.000142
0.000283
0.000294
0.000281
0.000414
0.000456
0.000435
0.000433
0.000456
0.000420
0.000310
0.000249
0.000283
0.000299
0.000223
0.000231
0.000275
0.000344
0.000375
0.000399
0.000365
0.000365
0.000275
0.000273
0.000265
0.000165
0.000102
0.000233
0.000401
0.000433
0.000438
0.000527
0.000496
0.000443
0.000438
0.000519
0.000538
0.000501
0.000449
0.000315
0.000199
0.000273
0.000325
0.000254
0.000144
0.000194
0.000299
0.000278
0.000283
0.000386
0.000341
0.000291
0.000407
0.000514
0.000380
0.000215
0.000079
-0.000034
-0.000034
0.000058
0.000144
0.000202
0.000155
0.000252
0.000412
0.000449
0.000359
0.000289
0.000212
0.000107
0.000094
0.000218
0.000265
0.000239
0.000275
0.000357
0.000341
0.000383
0.000470
0.000475
0.000399
0.000278
0.000228
0.000176
0.000113
0.000142
0.000181
0.000199
0.000241
0.000367
0.000498
0.000485
0.000472
0.000475
0.000435
0.000475
0.000569
0.000617
0.000543
0.000443
0.000422
0.000496
0.000449
0.000357
0.000239
0.000102
0.000094
0.000097
0.000102
0.000199
0.000252
0.000336
0.000346
0.000310
0.000254
0.000278
0.000265
0.000315
0.000412
0.000449
0.000449
0.000475
0.000333
0.000092
0.000052
0.000270
0.000362
0.000344
0.000425
0.000512
0.000454
0.000454
0.000512
0.000456
0.000370
0.000375
0.000338
0.000336
0.000265
0.000283
0.000289
0.000273
0.000302
0.000412
0.000446
0.000501
0.000517
0.000454
0.000380
0.000331
0.000378
0.000420
0.000438
0.000433
0.000451
0.000462
0.000462
0.000454
0.000388
0.000294
0.000239
0.000262
0.000231
0.000163
0.000173
0.000310
0.000346
0.000310
0.000299
0.000299
0.000315
0.000304
0.000312
0.000357
0.000375
0.000462
0.000485
0.000441
0.000422
0.000462
0.000443
0.000357
0.000265
0.000223
0.000346
0.000404
0.000425
0.000464
0.000456
0.000493
0.000456
0.000386
0.000362
0.000430
0.000480
0.000462
0.000404
0.000380
0.000414
0.000428
0.000325
0.000299
0.000304
0.000254
0.000302
0.000456
0.000414
0.000310
0.000331
0.000412
0.000391
0.000323
0.000312
0.000299
0.000254
0.000299
0.000359
0.000359
0.000365
0.000375
0.000404
0.000435
0.000357
0.000341
0.000252
0.000170
0.000231
0.000333
0.000396
0.000435
0.000396
0.000352
0.000304
0.000325
0.000375
0.000325
0.000268
0.000386
0.000491
0.000459
0.000391
0.000409
0.000365
0.000252
0.000257
0.000380
0.000401
0.000357
0.000504
0.000577
0.000491
0.000425
0.000470
0.000496
0.000506
0.000501
0.000438
0.000367
0.000302
0.000359
0.000422
0.000422
0.000341
0.000304
0.000396
0.000472
0.000462
0.000399
0.000336
0.000260
0.000181
0.000186
0.000210
0.000147
0.000163
0.000273
0.000244
0.000218
0.000328
0.000488
0.000456
0.000388
0.000443
0.000441
0.000349
0.000383
0.000472
0.000498
0.000435
0.000498
0.000540
0.000477
0.000443
0.000530
0.000556
0.000451
0.000433
0.000443
0.000365
0.000310
0.000352
0.000328
0.000231
0.000281
0.000383
0.000422
0.000378
0.000446
0.000459
0.000399
0.000378
0.000359
0.000268
0.000265
0.000317
0.000252
0.000126
0.000212
0.000438
0.000459
0.000388
0.000422
0.000388
0.000310
0.000304
0.000380
0.000414
0.000401
0.000409
0.000459
0.000491
0.000464
0.000383
0.000399
0.000417
0.000433
0.000525
0.000535
0.000561
0.000561
0.000559
0.000533
0.000472
0.000459
0.000425
0.000365
0.000286
0.000081
-0.000060
0.000026
0.000181
0.000260
0.000270
0.000365
0.000428
0.000470
0.000488
0.000391
0.000286
0.000307
0.000435
0.000491
0.000472
0.000456
0.000428
0.000396
0.000328
0.000346
0.000362
0.000362
0.000425
0.000470
0.000512
0.000491
0.000525
0.000533
0.000540
0.000498
0.000362
0.000278
0.000310
0.000236
0.000168
0.000291
0.000472
0.000488
0.000480
0.000546
0.000609
0.000530
0.000454
0.000404
0.000236
0.000226
0.000357
0.000443
0.000438
0.000438
0.000433
0.000393
0.000380
0.000404
0.000420
0.000344
0.000226
0.000207
0.000249
0.000315
0.000388
0.000404
0.000401
0.000362
0.000325
0.000336
0.000354
0.000341
0.000202
0.000089
0.000089
0.000257
0.000370
0.000456
0.000414
0.000414
0.000404
0.000464
0.000517
0.000459
0.000338
0.000270
0.000294
0.000323
0.000249
0.000275
0.000323
0.000241
0.000149
0.000144
0.000220
0.000310
0.000378
0.000483
0.000525
0.000525
0.000569
0.000601
0.000548
0.000512
0.000501
0.000512
0.000454
0.000477
0.000462
0.000338
0.000275
0.000346
0.000412
0.000359
0.000428
0.000498
0.000517
0.000456
0.000386
0.000396
0.000341
0.000349
0.000422
0.000451
0.000383
0.000331
0.000275
0.000294
0.000302
0.000367
0.000399
0.000491
0.000501
0.000498
0.000522
0.000514
0.000504
0.000433
0.000425
0.000467
0.000414
0.000451
0.000488
0.000459
0.000433
0.000388
0.000352
0.000241
0.000220
0.000380
0.000433
0.000396
0.000420
0.000459
0.000370
0.000359
0.000527
0.000564
0.000456
0.000472
0.000548
0.000546
0.000409
0.000367
0.000391
0.000302
0.000331
0.000451
0.000530
0.000485
0.000401
0.000443
0.000504
0.000451
0.000483
0.000498
0.000462
0.000446
0.000527
0.000582
0.000517
0.000470
0.000472
0.000475
0.000399
0.000396
0.000396
0.000383
0.000352
0.000370
0.000464
0.000517
0.000509
0.000509
0.000564
0.000527
0.000509
0.000543
0.000519
0.000522
0.000546
0.000546
0.000506
0.000459
0.000409
0.000367
0.000344
0.000433
0.000525
0.000530
0.000504
0.000512
0.000527
0.000396
0.000260
0.000262
0.000247
0.000207
0.000265
0.000425
0.000514
0.000530
0.000512
0.000527
0.000464
0.000399
0.000378
0.000443
0.000501
0.000540
0.000540
0.000446
0.000307
0.000252
0.000254
0.000212
0.000176
0.000220
0.000396
0.000498
0.000425
0.000362
0.000417
0.000425
0.000299
0.000333
0.000420
0.000435
0.000422
0.000459
0.000483
0.000407
0.000338
0.000370
0.000380
0.000296
0.000289
0.000433
0.000509
0.000493
0.000462
0.000533
0.000517
0.000480
0.000433
0.000464
0.000435
0.000422
0.000472
0.000504
0.000383
0.000370
0.000443
0.000456
0.000354
0.000362
0.000399
0.000409
0.000428
0.000491
0.000512
0.000446
0.000401
0.000470
0.000435
0.000417
0.000417
0.000435
0.000378
0.000433
0.000443
0.000359
0.000383
0.000480
0.000504
0.000393
0.000435
0.000535
0.000441
0.000296
0.000338
0.000477
0.000435
0.000399
0.000477
0.000590
0.000538
0.000498
0.000561
0.000535
0.000438
0.000496
0.000546
0.000551
0.000527
0.000548
0.000559
0.000538
0.000480
0.000388
0.000328
0.000341
0.000359
0.000399
0.000425
0.000559
0.000580
0.000519
0.000477
0.000527
0.000483
0.000446
0.000464
0.000472
0.000365
0.000178
0.000205
0.000247
0.000215
0.000176
0.000286
0.000433
0.000404
0.000370
0.000338
0.000378
0.000370
0.000380
0.000391
0.000459
0.000501
0.000477
0.000493
0.000496
0.000493
0.000509
0.000506
0.000430
0.000393
0.000433
0.000470
0.000464
0.000433
0.000414
0.000435
0.000422
0.000433
0.000506
0.000538
0.000472
0.000404
0.000433
0.000451
0.000428
0.000422
0.000422
0.000380
0.000420
0.000475
0.000509
0.000488
0.000554
0.000609
0.000580
0.000512
0.000480
0.000493
0.000435
0.000420
0.000412
0.000433
0.000412
0.000386
0.000380
0.000283
0.000260
0.000278
0.000391
0.000441
0.000456
0.000433
0.000420
0.000414
0.000488
0.000459
0.000428
0.000278
0.000205
0.000317
0.000388
0.000328
0.000349
0.000441
0.000451
0.000441
0.000475
0.000519
0.000509
0.000441
0.000493
0.000462
0.000393
0.000399
0.000404
0.000294
0.000302
0.000386
0.000370
0.000338
0.000407
0.000512
0.000396
0.000310
0.000401
0.000401
0.000349
0.000383
0.000467
0.000433
0.000449
0.000504
0.000496
0.000441
0.000475
0.000564
0.000480
0.000341
0.000352
0.000462
0.000491
0.000443
0.000512
0.000533
0.000477
0.000456
0.000438
0.000491
0.000446
0.000388
0.000446
0.000441
0.000428
0.000412
0.000480
0.000543
0.000569
0.000533
0.000535
0.000488
0.000519
0.000559
0.000575
0.000585
0.000564
0.000554
0.000477
0.000428
0.000446
0.000462
0.000443
0.000386
0.000304
0.000220
0.000257
0.000386
0.000483
0.000488
0.000535
0.000564
0.000543
0.000512
0.000538
0.000535
0.000504
0.000446
0.000443
0.000464
0.000506
0.000509
0.000483
0.000391
0.000388
0.000401
0.000449
0.000496
0.000538
0.000475
0.000449
0.000512
0.000572
0.000519
0.000514
0.000480
0.000449
0.000412
0.000519
0.000522
0.000517
0.000462
0.000470
0.000514
0.000517
0.000475
0.000357
0.000273
0.000220
0.000299
0.000433
0.000477
0.000443
0.000451
0.000519
0.000538
0.000585
0.000556
0.000451
0.000254
0.000249
0.000346
0.000485
0.000519
0.000517
0.000509
0.000525
0.000564
0.000535
0.000438
0.000307
0.000291
0.000367
0.000399
0.000464
0.000535
0.000491
0.000514
0.000506
0.000519
0.000459
0.000417
0.000443
0.000451
0.000464
0.000538
0.000564
0.000527
0.000522
0.000498
0.000412
0.000417
0.000449
0.000483
0.000491
0.000454
0.000441
0.000380
0.000422
0.000456
0.000451
0.000375
0.000407
0.000559
0.000572
0.000548
0.000522
0.000551
0.000564
0.000517
0.000530
0.000491
0.000443
0.000393
0.000378
0.000378
0.000341
0.000401
0.000454
0.000433
0.000451
0.000477
0.000470
0.000378
0.000420
0.000517
0.000430
0.000412
0.000496
0.000514
0.000414
0.000388
0.000433
0.000393
0.000404
0.000336
0.000231
0.000294
0.000438
0.000514
0.000530
0.000569
0.000611
0.000546
0.000467
0.000449
0.000446
0.000388
0.000477
0.000496
0.000435
0.000312
0.000443
0.000506
0.000378
0.000310
0.000438
0.000464
0.000475
0.000519
0.000567
0.000420
0.000333
0.000317
0.000281
0.000304
0.000386
0.000470
0.000451
0.000362
0.000441
0.000522
0.000493
0.000517
0.000593
0.000614
0.000567
0.000512
0.000399
0.000289
0.000281
0.000373
0.000362
0.000401
0.000480
0.000467
0.000467
0.000577
0.000598
0.000517
0.000462
0.000517
0.000556
0.000422
0.000446
0.000496
0.000409
0.000362
0.000396
0.000454
0.000456
0.000388
0.000375
0.000396
0.000383
0.000467
0.000617
0.000580
0.000519
0.000501
0.000512
0.000551
0.000564
0.000577
0.000551
0.000443
0.000407
0.000404
0.000357
0.000268
0.000184
0.000265
0.000291
0.000260
0.000336
0.000367
0.000265
0.000199
0.000307
0.000441
0.000438
0.000422
0.000467
0.000443
0.000393
0.000338
0.000362
0.000359
0.000375
0.000475
0.000467
0.000467
0.000527
0.000540
0.000554
0.000554
0.000596
0.000485
0.000386
0.000425
0.000522
0.000514
0.000430
0.000409
0.000449
0.000485
0.000396
0.000391
0.000430
0.000367
0.000336
0.000454
0.000567
0.000477
0.000475
0.000559
0.000501
0.000380
0.000260
0.000310
0.000312
0.000184
0.000275
0.000404
0.000396
0.000367
0.000401
0.000472
0.000498
0.000472
0.000456
0.000443
0.000414
0.000393
0.000422
0.000420
0.000401
0.000380
0.000375
0.000346
0.000223
0.000176
0.000226
0.000289
0.000257
0.000291
0.000412
0.000422
0.000393
0.000422
0.000438
0.000422
0.000414
0.000433
0.000530
0.000551
0.000559
0.000619
0.000580
0.000441
0.000328
0.000359
0.000428
0.000477
0.000498
0.000498
0.000509
0.000464
0.000498
0.000480
0.000378
0.000391
0.000512
0.000493
0.000391
0.000373
0.000472
0.000485
0.000412
0.000491
0.000467
0.000409
0.000443
0.000464
0.000454
0.000449
0.000504
0.000554
0.000530
0.000504
0.000525
0.000535
0.000485
0.000433
0.000464
0.000480
0.000464
0.000391
0.000346
0.000341
0.000393
0.000509
0.000569
0.000533
0.000443
0.000367
0.000365
0.000388
0.000388
0.000344
0.000412
0.000512
0.000585
0.000582
0.000575
0.000493
0.000467
0.000438
0.000496
0.000501
0.000441
0.000422
0.000428
0.000409
0.000310
0.000299
0.000359
0.000433
0.000509
0.000522
0.000454
0.000346
0.000359
0.000438
0.000435
0.000367
0.000333
0.000291
0.000286
0.000257
0.000336
0.000388
0.000370
0.000373
0.000454
0.000522
0.000480
0.000454
0.000446
0.000414
0.000378
0.000383
0.000475
0.000446
0.000428
0.000451
0.000491
0.000472
0.000501
0.000475
0.000304
0.000181
0.000320
0.000449
0.000480
0.000491
0.000496
0.000412
0.000443
0.000543
0.000527
0.000446
0.000396
0.000454
0.000449
0.000401
0.000464
0.000517
0.000470
0.000501
0.000522
0.000554
0.000596
0.000619
0.000590
0.000498
0.000438
0.000504
0.000569
0.000543
0.000535
0.000567
0.000556
0.000517
0.000551
0.000535
0.000488
0.000441
0.000472
0.000506
0.000488
0.000483
0.000501
0.000514
0.000543
0.000504
0.000527
0.000559
0.000551
0.000506
0.000467
0.000409
0.000399
0.000380
0.000328
0.000307
0.000310
0.000281
0.000262
0.000354
0.000475
0.000477
0.000475
0.000575
0.000611
0.000506
0.000506
0.000527
0.000441
0.000359
0.000388
0.000485
0.000506
0.000459
0.000477
0.000535
0.000493
0.000462
0.000472
0.000414
0.000357
0.000422
0.000475
0.000433
0.000409
0.000383
0.000349
0.000331
0.000373
0.000449
0.000467
0.000459
0.000464
0.000425
0.000435
0.000556
0.000611
0.000546
0.000443
0.000388
0.000407
0.000401
0.000341
0.000354
0.000417
0.000378
0.000407
0.000509
0.000488
0.000383
0.000370
0.000401
0.000464
0.000435
0.000456
0.000451
0.000370
0.000393
0.000414
0.000407
0.000443
0.000459
0.000504
0.000485
0.000514
0.000522
0.000493
0.000438
0.000401
0.000491
0.000514
0.000491
0.000435
0.000428
0.000425
0.000393
0.000414
0.000470
0.000538
0.000493
0.000449
0.000414
0.000386
0.000362
0.000498
0.000580
0.000538
0.000488
0.000525
0.000472
0.000312
0.000304
0.000407
0.000435
0.000370
0.000438
0.000530
0.000540
0.000522
0.000598
0.000653
0.000606
0.000561
0.000588
0.000580
0.000522
0.000506
0.000485
0.000428
0.000373
0.000341
0.000354
0.000454
0.000433
0.000380
0.000519
0.000609
0.000582
0.000624
0.000609
0.000577
0.000512
0.000472
0.000483
0.000477
0.000480
0.000456
0.000373
0.000370
0.000430
0.000504
0.000496
0.000472
0.000496
0.000569
0.000548
0.000561
0.000517
0.000501
0.000467
0.000454
0.000512
0.000519
0.000409
0.000401
0.000475
0.000564
0.000533
0.000517
0.000582
0.000556
0.000504
0.000428
0.000433
0.000491
0.000491
0.000443
0.000480
0.000543
0.000533
0.000543
0.000606
0.000635
0.000580
0.000530
0.000519
0.000535
0.000504
0.000522
0.000535
0.000467
0.000428
0.000449
0.000451
0.000449
0.000441
0.000477
0.000475
0.000483
0.000569
0.000590
0.000609
0.000611
0.000582
0.000556
0.000433
0.000336
0.000299
0.000373
0.000475
0.000509
0.000551
0.000577
0.000535
0.000588
0.000603
0.000538
0.000459
0.000412
0.000425
0.000470
0.000483
0.000509
0.000454
0.000446
0.000464
0.000498
0.000546
0.000517
0.000556
0.000538
0.000483
0.000456
0.000512
0.000561
0.000527
0.000493
0.000480
0.000433
0.000386
0.000373
0.000401
0.000443
0.000477
0.000543
0.000606
0.000609
0.000543
0.000454
0.000401
0.000380
0.000302
0.000315
0.000388
0.000399
0.000438
0.000441
0.000504
0.000577
0.000551
0.000580
0.000525
0.000480
0.000525
0.000543
0.000480
0.000441
0.000472
0.000488
0.000485
0.000517
0.000533
0.000498
0.000446
0.000514
0.000577
0.000533
0.000530
0.000603
0.000596
0.000554
0.000514
0.000575
0.000556
0.000467
0.000512
0.000572
0.000535
0.000533
0.000525
0.000456
0.000454
0.000443
0.000496
0.000517
0.000527
0.000561
0.000554
0.000512
0.000467
0.000459
0.000470
0.000493
0.000506
0.000472
0.000443
0.000514
0.000572
0.000530
0.000475
0.000472
0.000472
0.000472
0.000404
0.000422
0.000475
0.000519
0.000493
0.000488
0.000506
0.000493
0.000475
0.000519
0.000572
0.000498
0.000475
0.000538
0.000512
0.000454
0.000407
0.000493
0.000467
0.000417
0.000346
0.000430
0.000533
0.000496
0.000519
0.000582
0.000572
0.000498
0.000472
0.000512
0.000456
0.000412
0.000409
0.000491
0.000551
0.000546
0.000572
0.000598
0.000596
0.000533
0.000443
0.000454
0.000456
0.000488
0.000425
0.000430
0.000462
0.000477
0.000456
0.000472
0.000569
0.000551
0.000483
0.000509
0.000506
0.000428
0.000401
0.000425
0.000428
0.000396
0.000380
0.000420
0.000425
0.000409
0.000409
0.000462
0.000449
0.000396
0.000331
0.000370
0.000409
0.000454
0.000459
0.000527
0.000522
0.000456
0.000456
0.000483
0.000485
0.000525
0.000512
0.000533
0.000498
0.000533
0.000561
0.000569
0.000535
0.000561
0.000598
0.000567
0.000498
0.000522
0.000535
0.000588
0.000538
0.000493
0.000470
0.000454
0.000470
0.000449
0.000404
0.000451
0.000522
0.000535
0.000556
0.000543
0.000530
0.000530
0.000512
0.000517
0.000535
0.000564
0.000540
0.000525
0.000527
0.000475
0.000409
0.000307
0.000294
0.000417
0.000472
0.000464
0.000470
0.000483
0.000475
0.000459
0.000530
0.000596
0.000582
0.000598
0.000624
0.000609
0.000564
0.000543
0.000575
0.000462
0.000396
0.000422
0.000527
0.000496
0.000412
0.000501
0.000454
0.000362
0.000417
0.000548
0.000525
0.000417
0.000367
0.000428
0.000375
0.000307
0.000404
0.000472
0.000493
0.000483
0.000493
0.000527
0.000535
0.000556
0.000635
0.000596
0.000535
0.000533
0.000535
0.000483
0.000485
0.000480
0.000433
0.000493
0.000564
0.000533
0.000504
0.000443
0.000462
0.000470
0.000485
0.000572
0.000561
0.000593
0.000596
0.000564
0.000530
0.000525
0.000572
0.000556
0.000593
0.000614
0.000575
0.000554
0.000540
0.000441
0.000338
0.000407
0.000470
0.000514
0.000546
0.000559
0.000538
0.000512
0.000509
0.000472
0.000446
0.000546
0.000559
0.000572
0.000582
0.000645
0.000593
0.000525
0.000498
0.000567
0.000543
0.000533
0.000590
0.000601
0.000588
0.000506
0.000535
0.000509
0.000446
0.000472
0.000462
0.000451
0.000467
0.000530
0.000585
0.000551
0.000551
0.000519
0.000470
0.000438
0.000498
0.000548
0.000533
0.000572
0.000559
0.000512
0.000449
0.000567
0.000548
0.000527
0.000512
0.000572
0.000596
0.000538
0.000493
0.000477
0.000446
0.000491
0.000525
0.000519
0.000533
0.000561
0.000554
0.000567
0.000585
0.000506
0.000449
0.000485
0.000525
0.000559
0.000540
0.000588
0.000611
0.000601
0.000593
0.000567
0.000556
0.000556
0.000498
0.000380
0.000365
0.000467
0.000577
0.000556
0.000533
0.000464
0.000449
0.000517
0.000588
0.000535
0.000540
0.000509
0.000464
0.000430
0.000417
0.000399
0.000401
0.000496
0.000491
0.000378
0.000354
0.000456
0.000556
0.000572
0.000525
0.000517
0.000425
0.000396
0.000443
0.000483
0.000491
0.000456
0.000433
0.000414
0.000333
0.000265
0.000241
0.000275
0.000328
0.000391
0.000443
0.000522
0.000582
0.000622
0.000567
0.000472
0.000341
0.000320
0.000359
0.000435
0.000470
0.000506
0.000522
0.000504
0.000488
0.000504
0.000451
0.000456
0.000496
0.000525
0.000454
0.000491
0.000580
0.000564
0.000533
0.000543
0.000554
0.000517
0.000501
0.000498
0.000491
0.000546
0.000598
0.000582
0.000603
0.000593
0.000493
0.000527
0.000569
0.000517
0.000443
0.000485
0.000540
0.000504
0.000472
0.000506
0.000493
0.000472
0.000506
0.000535
0.000462
0.000449
0.000483
0.000488
0.000498
0.000569
0.000556
0.000569
0.000567
0.000567
0.000559
0.000517
0.000517
0.000475
0.000441
0.000404
0.000441
0.000483
0.000504
0.000462
0.000414
0.000477
0.000546
0.000564
0.000567
0.000569
0.000540
0.000551
0.000556
0.000601
0.000548
0.000512
0.000451
0.000464
0.000485
0.000467
0.000483
0.000514
0.000569
0.000564
0.000512
0.000485
0.000504
0.000546
0.000551
0.000543
0.000538
0.000540
0.000548
0.000533
0.000517
0.000556
0.000601
0.000606
0.000617
0.000619
0.000593
0.000559
0.000590
0.000622
0.000588
0.000556
0.000556
0.000535
0.000496
0.000517
0.000527
0.000509
0.000456
0.000373
0.000373
0.000370
0.000480
0.000533
0.000517
0.000572
0.000624
0.000611
0.000609
0.000624
0.000596
0.000472
0.000391
0.000449
0.000485
0.000459
0.000420
0.000506
0.000543
0.000535
0.000533
0.000561
0.000556
0.000522
0.000596
0.000630
0.000540
0.000483
0.000491
0.000472
0.000380
0.000409
0.000551
0.000535
0.000564
0.000624
0.000643
0.000632
0.000582
0.000648
0.000582
0.000517
0.000551
0.000611
0.000611
0.000588
0.000609
0.000575
0.000525
0.000564
0.000580
0.000527
0.000422
0.000451
0.000483
0.000433
0.000373
0.000446
0.000519
0.000512
0.000467
0.000488
0.000564
0.000551
0.000572
0.000624
0.000638
0.000585
0.000585
0.000609
0.000575
0.000559
0.000543
0.000519
0.000506
0.000451
0.000470
0.000514
0.000485
0.000449
0.000409
0.000443
0.000514
0.000559
0.000582
0.000546
0.000530
0.000540
0.000472
0.000449
0.000443
0.000467
0.000475
0.000491
0.000504
0.000506
0.000517
0.000601
0.000580
0.000609
0.000598
0.000575
0.000572
0.000593
0.000603
0.000624
0.000575
0.000514
0.000459
0.000464
0.000506
0.000525
0.000498
0.000527
0.000556
0.000580
0.000598
0.000598
0.000588
0.000609
0.000619
0.000556
0.000509
0.000483
0.000475
0.000506
0.000525
0.000535
0.000572
0.000577
0.000556
0.000525
0.000501
0.000509
0.000509
0.000467
0.000467
0.000569
0.000582
0.000519
0.000493
0.000498
0.000449
0.000420
0.000399
0.000488
0.000428
0.000380
0.000446
0.000488
0.000446
0.000433
0.000525
0.000522
0.000388
0.000399
0.000517
0.000569
0.000483
0.000438
0.000464
0.000485
0.000467
0.000417
0.000349
0.000296
0.000289
0.000338
0.000320
0.000231
0.000291
0.000378
0.000438
0.000488
0.000530
0.000538
0.000459
0.000525
0.000554
0.000501
0.000383
0.000491
0.000588
0.000575
0.000475
0.000514
0.000540
0.000548
0.000527
0.000504
0.000525
0.000498
0.000514
0.000530
0.000491
0.000533
0.000535
0.000569
0.000564
0.000527
0.000561
0.000609
0.000606
0.000569
0.000527
0.000601
0.000569
0.000475
0.000373
0.000296
0.000328
0.000401
0.000412
0.000425
0.000430
0.000417
0.000454
0.000533
0.000569
0.000496
0.000538
0.000603
0.000572
0.000540
0.000530
0.000517
0.000496
0.000488
0.000517
0.000517
0.000443
0.000477
0.000543
0.000506
0.000441
0.000548
0.000556
0.000491
0.000449
0.000433
0.000428
0.000446
0.000477
0.000462
0.000522
0.000564
0.000559
0.000548
0.000596
0.000588
0.000506
0.000517
0.000596
0.000577
0.000582
0.000593
0.000614
0.000585
0.000596
0.000585
0.000540
0.000527
0.000556
0.000543
0.000554
0.000638
0.000661
0.000630
0.000611
0.000619
0.000569
0.000454
0.000420
0.000501
0.000538
0.000527
0.000569
0.000577
0.000530
0.000551
0.000609
0.000564
0.000506
0.000454
0.000514
0.000517
0.000517
0.000493
0.000538
0.000572
0.000590
0.000575
0.000582
0.000540
0.000512
0.000496
0.000433
0.000446
0.000451
0.000488
0.000477
0.000438
0.000462
0.000538
0.000525
0.000496
0.000525
0.000585
0.000622
0.000619
0.000640
0.000588
0.000470
0.000475
0.000512
0.000580
0.000577
0.000590
0.000606
0.000538
0.000506
0.000512
0.000491
0.000470
0.000470
0.000477
0.000446
0.000498
0.000530
0.000522
0.000548
0.000533
0.000561
0.000525
0.000538
0.000609
0.000596
0.000543
0.000540
0.000530
0.000477
0.000467
0.000433
0.000470
0.000459
0.000477
0.000443
0.000365
0.000391
0.000467
0.000498
0.000551
0.000564
0.000554
0.000575
0.000588
0.000596
0.000561
0.000556
0.000585
0.000564
0.000533
0.000493
0.000462
0.000451
0.000462
0.000477
0.000535
0.000609
0.000575
0.000585
0.000611
0.000593
0.000582
0.000512
0.000412
0.000391
0.000414
0.000485
0.000472
0.000506
0.000533
0.000480
0.000517
0.000590
0.000585
0.000530
0.000504
0.000554
0.000538
0.000504
0.000543
0.000438
0.000386
0.000407
0.000459
0.000491
0.000496
0.000514
0.000561
0.000559
0.000575
0.000588
0.000585
0.000530
0.000596
0.000627
0.000585
0.000596
0.000582
0.000438
0.000454
0.000530
0.000527
0.000446
0.000454
0.000525
0.000533
0.000527
0.000588
0.000653
0.000603
0.000580
0.000627
0.000582
0.000572
0.000556
0.000533
0.000433
0.000409
0.000417
0.000509
0.000530
0.000527
0.000588
0.000611
0.000614
0.000669
0.000632
0.000617
0.000601
0.000588
0.000556
0.000491
0.000493
0.000519
0.000491
0.000451
0.000433
0.000509
0.000462
0.000483
0.000556
0.000530
0.000456
0.000462
0.000561
0.000596
0.000561
0.000559
0.000554
0.000585
0.000601
0.000624
0.000572
0.000525
0.000512
0.000517
0.000543
0.000585
0.000577
0.000577
0.000596
0.000611
0.000522
0.000512
0.000559
0.000590
0.000564
0.000598
0.000664
0.000669
0.000603
0.000564
0.000519
0.000538
0.000546
