Start time = 18:13:32.337284
End time = 18:13:42.274384
laser_energy = 6.010
channel_1_dial = 850
channel_2_dial = 850
channel_3_dial = 850
channel_4_dial = 850
NG-1-LII = 0
NG-3-15399 = 0
NG-4-LII = 0
NG-4-15399 = 0
NG-5-LII = 0
NG-5-15399 = 0
NG-9-LII = 0
NG-9-15399 = 0
NG-10-01 = 0
NG-11-15399 = 0
NG-12-15399 = 0
NG-4A-2001 = 0
NG-4B-2001 = 0
NG-5A-2001 = 0
NG-3-2001 = 0
NG-5B-2001 = 0
NG-1-2001 = 0
NG-9-2001 = 0
NG-10-2001 = 0
NG-11-2001 = 0
NG-12-2001 = 0
AND-200SN09 = 0
AND-100SN09 = 0
AND-050SN09 = 0
AND-030SN09 = 0
AND-015SN05 = 0
PMT#1Voltage = 0
PMT#2Voltage = 0
t0(sec) = 0.000000E+0
dt(sec) = 4.000000E-10
F1:INSP "
DESCRIPTOR_NAME    : WAVEDESC           
TEMPLATE_NAME      : LECROY_2_3         
COMM_TYPE          : word               
COMM_ORDER         : HIFIRST            
WAVE_DESCRIPTOR    : 346                
USER_TEXT          : 0                  
RES_DESC1          : 0                  
TRIGTIME_ARRAY     : 0                  
RIS_TIME_ARRAY     : 0                  
RES_ARRAY1         : 0                  
WAVE_ARRAY_1       : 10002              
WAVE_ARRAY_2       : 0                  
RES_ARRAY2         : 0                  
RES_ARRAY3         : 0                  
INSTRUMENT_NAME    : LECROYHDO6104      
INSTRUMENT_NUMBER  : 6308               
TRACE_LABEL        :                    
RESERVED1          : 5001               
RESERVED2          : 0                  
WAVE_ARRAY_COUNT   : 5001               
PNTS_PER_SCREEN    : 5000               
FIRST_VALID_PNT    : 0                  
LAST_VALID_PNT     : 5000               
FIRST_POINT        : 0                  
SPARSING_FACTOR    : 1                  
SEGMENT_INDEX      : 0                  
SUBARRAY_COUNT     : 1                  
SWEEPS_PER_ACQ     : 200                
POINTS_PER_PAIR    : 0                  
PAIR_OFFSET        : 0                  
VERTICAL_GAIN      : 2.6238e-006        
VERTICAL_OFFSET    : 6.5501e-002        
MAX_VALUE          : 3.0816e+004        
MIN_VALUE          : 1.3388e+004        
NOMINAL_BITS       : 16                 
NOM_SUBARRAY_COUNT : 1                  
HORIZ_INTERVAL     : 4.0000e-010        
HORIZ_OFFSET       : -2.00000000e-007   
PIXEL_OFFSET       : -2.00000000e-007   
VERTUNIT           : Unit Name = V
HORUNIT            : Unit Name = S
HORIZ_UNCERTAINTY  : 1.0000e-012        
TRIGGER_TIME       : Date = APR 17, 2024, Time = 19:13:28.228644219
ACQ_DURATION       : 9.9991e+000        
RECORD_TYPE        : single_sweep       
PROCESSING_DONE    : no_processing      
RESERVED5          : 0                  
RIS_SWEEPS         : 1                  
TIMEBASE           : 200_ns/div         
VERT_COUPLING      : DC_50_Ohms         
PROBE_ATT          : 1.0000e+000        
FIXED_VERT_GAIN    : 5_mV/div           
BANDWIDTH_LIMIT    : off                
VERTICAL_VERNIER   : 1.1600e+000        
ACQ_VERT_OFFSET    : 0.0000e+000        
WAVE_SOURCE        : UNKNOWN            
"
0.000205
0.000189
0.000191
0.000218
0.000226
0.000202
0.000233
0.000212
0.000212
0.000199
0.000228
0.000244
0.000226
0.000207
0.000212
0.000249
0.000215
0.000223
0.000207
0.000231
0.000223
0.000199
0.000212
0.000236
0.000215
0.000210
0.000223
0.000218
0.000215
0.000236
0.000199
0.000220
0.000218
0.000207
0.000223
0.000223
0.000207
0.000233
0.000239
0.000215
0.000212
0.000226
0.000228
0.000233
0.000215
0.000226
0.000260
0.000223
0.000249
0.000247
0.000212
0.000228
0.000236
0.000223
0.000239
0.000233
0.000233
0.000226
0.000223
0.000207
0.000228
0.000228
0.000212
0.000205
0.000231
0.000231
0.000220
0.000199
0.000207
0.000220
0.000165
0.000170
0.000168
0.000173
0.000199
0.000184
0.000212
0.000207
0.000205
0.000184
0.000191
0.000223
0.000199
0.000197
0.000191
0.000191
0.000191
0.000181
0.000191
0.000207
0.000173
0.000220
0.000247
0.000252
0.000226
0.000215
0.000236
0.000252
0.000231
0.000233
0.000247
0.000212
0.000197
0.000207
0.000202
0.000218
0.000212
0.000218
0.000212
0.000199
0.000163
0.000197
0.000236
0.000215
0.000218
0.000244
0.000228
0.000223
0.000207
0.000215
0.000210
0.000191
0.000181
0.000205
0.000197
0.000241
0.000233
0.000210
0.000236
0.000223
0.000207
0.000207
0.000210
0.000189
0.000178
0.000218
0.000228
0.000218
0.000223
0.000239
0.000226
0.000247
0.000220
0.000241
0.000233
0.000207
0.000231
0.000199
0.000186
0.000218
0.000157
0.000184
0.000202
0.000173
0.000202
0.000212
0.000226
0.000212
0.000205
0.000231
0.000247
0.000223
0.000218
0.000231
0.000223
0.000231
0.000220
0.000207
0.000215
0.000236
0.000199
0.000189
0.000176
0.000160
0.000163
0.000168
0.000170
0.000184
0.000184
0.000189
0.000194
0.000239
0.000194
0.000223
0.000241
0.000268
0.000215
0.000257
0.000252
0.000257
0.000244
0.000233
0.000210
0.000223
0.000207
0.000210
0.000189
0.000199
0.000191
0.000223
0.000199
0.000197
0.000199
0.000186
0.000191
0.000202
0.000223
0.000205
0.000215
0.000218
0.000184
0.000207
0.000212
0.000223
0.000205
0.000247
0.000202
0.000207
0.000205
0.000210
0.000218
0.000202
0.000212
0.000199
0.000189
0.000189
0.000178
0.000199
0.000189
0.000226
0.000207
0.000202
0.000220
0.000202
0.000207
0.000226
0.000212
0.000220
0.000226
0.000252
0.000228
0.000257
0.000241
0.000215
0.000233
0.000231
0.000218
0.000239
0.000202
0.000223
0.000207
0.000186
0.000199
0.000223
0.000173
0.000233
0.000231
0.000218
0.000254
0.000231
0.000223
0.000241
0.000231
0.000239
0.000223
0.000239
0.000205
0.000205
0.000226
0.000231
0.000212
0.000223
0.000239
0.000202
0.000210
0.000249
0.000247
0.000239
0.000218
0.000220
0.000220
0.000236
0.000205
0.000210
0.000205
0.000236
0.000215
0.000226
0.000228
0.000247
0.000228
0.000228
0.000252
0.000249
0.000223
0.000239
0.000223
0.000210
0.000228
0.000228
0.000212
0.000197
0.000202
0.000226
0.000197
0.000218
0.000197
0.000205
0.000194
0.000220
0.000212
0.000228
0.000247
0.000218
0.000223
0.000233
0.000223
0.000207
0.000218
0.000223
0.000207
0.000236
0.000223
0.000236
0.000197
0.000215
0.000226
0.000252
0.000215
0.000210
0.000226
0.000218
0.000226
0.000226
0.000233
0.000220
0.000249
0.000202
0.000233
0.000239
0.000228
0.000236
0.000220
0.000228
0.000207
0.000205
0.000218
0.000228
0.000220
0.000205
0.000210
0.000223
0.000239
0.000233
0.000199
0.000207
0.000231
0.000184
0.000160
0.000199
0.000212
0.000223
0.000197
0.000205
0.000220
0.000212
0.000226
0.000199
0.000244
0.000220
0.000210
0.000228
0.000249
0.000223
0.000223
0.000254
0.000236
0.000247
0.000226
0.000260
0.000231
0.000231
0.000239
0.000244
0.000249
0.000212
0.000199
0.000231
0.000236
0.000218
0.000228
0.000226
0.000220
0.000226
0.000207
0.000236
0.000205
0.000189
0.000218
0.000233
0.000231
0.000223
0.000233
0.000218
0.000212
0.000239
0.000236
0.000257
0.000241
0.000220
0.000199
0.000207
0.000218
0.000228
0.000231
0.000257
0.000249
0.000189
0.000228
0.000226
0.000210
0.000191
0.000202
0.000199
0.000194
0.000205
0.000231
0.000241
0.000257
0.000247
0.000244
0.000223
0.000220
0.000228
0.000228
0.000275
0.000249
0.000207
0.000178
0.000149
0.000147
0.000149
0.000168
0.000189
0.000186
0.000205
0.000254
0.000270
0.000249
0.000262
0.000212
0.000181
0.000139
0.000160
0.000136
0.000160
0.000189
0.000176
0.000178
0.000173
0.000218
0.000252
0.000260
0.000294
0.000281
0.000283
0.000233
0.000155
0.000157
0.000155
0.000121
0.000173
0.000220
0.000218
0.000212
0.000205
0.000231
0.000249
0.000205
0.000218
0.000218
0.000218
0.000207
0.000205
0.000233
0.000241
0.000215
0.000223
0.000249
0.000247
0.000241
0.000226
0.000210
0.000157
0.000097
0.000092
0.000102
0.000134
0.000108
0.000160
0.000168
0.000115
0.000152
0.000144
0.000189
0.000252
0.000325
0.000409
0.000430
0.000435
0.000428
0.000365
0.000338
0.000265
0.000176
0.000126
0.000052
0.000034
-0.000016
0.000026
0.000052
0.000118
0.000186
0.000244
0.000278
0.000338
0.000370
0.000367
0.000315
0.000289
0.000244
0.000197
0.000186
0.000155
0.000142
0.000181
0.000197
0.000205
0.000186
0.000215
0.000220
0.000262
0.000344
0.000380
0.000325
0.000341
0.000338
0.000294
0.000247
0.000202
0.000168
0.000165
0.000131
0.000100
0.000073
0.000105
0.000149
0.000108
0.000005
-0.000199
-0.000572
-0.001246
-0.002278
-0.003639
-0.005319
-0.007292
-0.009509
-0.011820
-0.014169
-0.016386
-0.018466
-0.020335
-0.021772
-0.022859
-0.023646
-0.024139
-0.024459
-0.024611
-0.024540
-0.024341
-0.024163
-0.024223
-0.024307
-0.024239
-0.023992
-0.023787
-0.023370
-0.022746
-0.022292
-0.021788
-0.021187
-0.020691
-0.020227
-0.019639
-0.018870
-0.018044
-0.017317
-0.016664
-0.016042
-0.015522
-0.015166
-0.014987
-0.014701
-0.014289
-0.013909
-0.013460
-0.012870
-0.012342
-0.012106
-0.011975
-0.011692
-0.011348
-0.011267
-0.011206
-0.011070
-0.010941
-0.010873
-0.011010
-0.011117
-0.011235
-0.011421
-0.011621
-0.011865
-0.012041
-0.011991
-0.011786
-0.011503
-0.011332
-0.011196
-0.010941
-0.010655
-0.010600
-0.010532
-0.010445
-0.010445
-0.010361
-0.010157
-0.009839
-0.009640
-0.009493
-0.009273
-0.009023
-0.008853
-0.008627
-0.008318
-0.008058
-0.007843
-0.007701
-0.007572
-0.007525
-0.007376
-0.007297
-0.007171
-0.007019
-0.006874
-0.006623
-0.006460
-0.006344
-0.006176
-0.006027
-0.005982
-0.005938
-0.005872
-0.005744
-0.005623
-0.005576
-0.005465
-0.005413
-0.005471
-0.005439
-0.005355
-0.005334
-0.005277
-0.005290
-0.005290
-0.005277
-0.005237
-0.005158
-0.005051
-0.004941
-0.004878
-0.004854
-0.004807
-0.004768
-0.004699
-0.004621
-0.004565
-0.004539
-0.004571
-0.004600
-0.004573
-0.004552
-0.004445
-0.004290
-0.004198
-0.004049
-0.003907
-0.003896
-0.003847
-0.003768
-0.003705
-0.003624
-0.003589
-0.003597
-0.003516
-0.003498
-0.003456
-0.003290
-0.003222
-0.003112
-0.002999
-0.002852
-0.002781
-0.002700
-0.002611
-0.002503
-0.002451
-0.002453
-0.002445
-0.002480
-0.002532
-0.002582
-0.002742
-0.002850
-0.002928
-0.003028
-0.003028
-0.002923
-0.002881
-0.002855
-0.002794
-0.002700
-0.002634
-0.002487
-0.002414
-0.002320
-0.002356
-0.002411
-0.002464
-0.002464
-0.002403
-0.002346
-0.002309
-0.002215
-0.002152
-0.002157
-0.002131
-0.002086
-0.002057
-0.002120
-0.002138
-0.002136
-0.002034
-0.001926
-0.001852
-0.001831
-0.001818
-0.001792
-0.001766
-0.001758
-0.001763
-0.001698
-0.001685
-0.001695
-0.001719
-0.001658
-0.001590
-0.001551
-0.001448
-0.001404
-0.001385
-0.001322
-0.001354
-0.001412
-0.001595
-0.001674
-0.001734
-0.001818
-0.001879
-0.001808
-0.001745
-0.001700
-0.001637
-0.001551
-0.001459
-0.001414
-0.001286
-0.001207
-0.001220
-0.001259
-0.001288
-0.001291
-0.001283
-0.001307
-0.001391
-0.001454
-0.001454
-0.001464
-0.001459
-0.001396
-0.001317
-0.001228
-0.001207
-0.001115
-0.001050
-0.001034
-0.001029
-0.000981
-0.000979
-0.000966
-0.000908
-0.000890
-0.000916
-0.000981
-0.001010
-0.001018
-0.001078
-0.001018
-0.000960
-0.000892
-0.000905
-0.000929
-0.000960
-0.001044
-0.001055
-0.001097
-0.001144
-0.001139
-0.001102
-0.001089
-0.001026
-0.001000
-0.000994
-0.001029
-0.001071
-0.001047
-0.001034
-0.001023
-0.001002
-0.000989
-0.001050
-0.001050
-0.001076
-0.001102
-0.001081
-0.001084
-0.001005
-0.000945
-0.000869
-0.000821
-0.000845
-0.000811
-0.000745
-0.000732
-0.000701
-0.000601
-0.000559
-0.000564
-0.000509
-0.000504
-0.000548
-0.000606
-0.000690
-0.000774
-0.000850
-0.000945
-0.001015
-0.001065
-0.001092
-0.001136
-0.001120
-0.001047
-0.000924
-0.000798
-0.000708
-0.000543
-0.000449
-0.000412
-0.000378
-0.000349
-0.000360
-0.000415
-0.000467
-0.000562
-0.000622
-0.000640
-0.000651
-0.000711
-0.000677
-0.000669
-0.000724
-0.000682
-0.000661
-0.000682
-0.000648
-0.000614
-0.000596
-0.000556
-0.000493
-0.000459
-0.000438
-0.000402
-0.000365
-0.000328
-0.000357
-0.000370
-0.000391
-0.000480
-0.000493
-0.000583
-0.000672
-0.000690
-0.000743
-0.000711
-0.000703
-0.000669
-0.000632
-0.000567
-0.000538
-0.000472
-0.000402
-0.000357
-0.000315
-0.000260
-0.000252
-0.000244
-0.000283
-0.000325
-0.000346
-0.000417
-0.000464
-0.000530
-0.000543
-0.000604
-0.000630
-0.000609
-0.000585
-0.000533
-0.000485
-0.000412
-0.000391
-0.000373
-0.000428
-0.000402
-0.000402
-0.000412
-0.000433
-0.000404
-0.000344
-0.000323
-0.000304
-0.000260
-0.000244
-0.000239
-0.000291
-0.000307
-0.000354
-0.000420
-0.000506
-0.000501
-0.000475
-0.000472
-0.000412
-0.000354
-0.000283
-0.000281
-0.000257
-0.000197
-0.000192
-0.000207
-0.000220
-0.000231
-0.000215
-0.000294
-0.000357
-0.000365
-0.000391
-0.000441
-0.000459
-0.000428
-0.000430
-0.000446
-0.000422
-0.000404
-0.000388
-0.000357
-0.000310
-0.000202
-0.000160
-0.000126
-0.000110
-0.000084
-0.000105
-0.000121
-0.000168
-0.000184
-0.000226
-0.000268
-0.000265
-0.000318
-0.000354
-0.000365
-0.000378
-0.000417
-0.000415
-0.000396
-0.000402
-0.000360
-0.000299
-0.000244
-0.000194
-0.000160
-0.000126
-0.000134
-0.000163
-0.000134
-0.000165
-0.000186
-0.000168
-0.000165
-0.000199
-0.000192
-0.000178
-0.000239
-0.000268
-0.000241
-0.000249
-0.000265
-0.000265
-0.000205
-0.000194
-0.000155
-0.000142
-0.000118
-0.000087
-0.000105
-0.000063
-0.000081
-0.000116
-0.000055
-0.000087
-0.000084
-0.000076
-0.000071
-0.000123
-0.000102
-0.000157
-0.000197
-0.000215
-0.000247
-0.000265
-0.000281
-0.000276
-0.000252
-0.000265
-0.000223
-0.000144
-0.000129
-0.000084
-0.000047
-0.000063
-0.000074
-0.000039
-0.000060
-0.000071
-0.000089
-0.000152
-0.000220
-0.000231
-0.000257
-0.000304
-0.000291
-0.000286
-0.000323
-0.000325
-0.000299
-0.000278
-0.000260
-0.000255
-0.000192
-0.000144
-0.000129
-0.000095
-0.000079
-0.000074
-0.000087
-0.000116
-0.000123
-0.000134
-0.000136
-0.000173
-0.000186
-0.000226
-0.000220
-0.000262
-0.000205
-0.000150
-0.000126
-0.000097
-0.000037
-0.000032
-0.000089
-0.000100
-0.000076
-0.000063
-0.000037
-0.000018
-0.000050
-0.000042
-0.000068
-0.000071
-0.000089
-0.000121
-0.000147
-0.000176
-0.000202
-0.000231
-0.000283
-0.000291
-0.000276
-0.000331
-0.000320
-0.000268
-0.000241
-0.000173
-0.000126
-0.000087
-0.000011
0.000013
0.000042
0.000058
0.000058
0.000045
0.000005
-0.000021
-0.000050
-0.000097
-0.000142
-0.000129
-0.000123
-0.000171
-0.000165
-0.000142
-0.000147
-0.000131
-0.000110
-0.000074
-0.000039
-0.000029
-0.000003
-0.000016
0.000031
0.000026
0.000026
-0.000000
-0.000018
0.000005
-0.000042
-0.000029
-0.000037
-0.000084
-0.000092
-0.000129
-0.000147
-0.000194
-0.000173
-0.000157
-0.000160
-0.000134
-0.000084
-0.000063
-0.000047
0.000024
0.000016
0.000013
0.000029
0.000031
0.000018
0.000010
0.000024
0.000026
0.000013
-0.000024
-0.000063
-0.000055
-0.000074
-0.000108
-0.000108
-0.000081
-0.000058
-0.000042
-0.000029
0.000026
0.000031
0.000029
0.000055
0.000013
0.000016
0.000008
0.000010
0.000005
-0.000021
-0.000013
-0.000008
-0.000021
-0.000074
-0.000087
-0.000136
-0.000131
-0.000134
-0.000181
-0.000155
-0.000129
-0.000134
-0.000118
-0.000108
-0.000084
-0.000087
-0.000039
0.000010
0.000016
0.000018
0.000066
0.000071
0.000066
0.000008
0.000034
0.000005
-0.000039
-0.000079
-0.000071
-0.000047
-0.000026
-0.000005
-0.000039
-0.000003
0.000018
0.000026
0.000052
0.000052
0.000087
0.000097
0.000060
0.000105
0.000094
0.000060
0.000097
0.000092
0.000076
0.000047
0.000055
0.000037
-0.000000
-0.000005
-0.000021
-0.000005
-0.000037
-0.000032
-0.000011
0.000005
0.000005
-0.000021
-0.000005
0.000016
0.000013
0.000024
0.000076
0.000047
0.000047
0.000047
0.000008
0.000005
0.000029
0.000029
0.000031
-0.000005
-0.000008
-0.000058
-0.000063
-0.000050
-0.000042
-0.000029
-0.000003
0.000018
0.000071
0.000087
0.000136
0.000139
0.000123
0.000170
0.000170
0.000123
0.000108
0.000102
0.000055
0.000021
0.000003
-0.000011
-0.000074
-0.000081
-0.000113
-0.000147
-0.000144
-0.000126
-0.000121
-0.000095
-0.000042
-0.000013
0.000013
0.000073
0.000060
0.000031
0.000029
0.000024
-0.000037
-0.000026
0.000008
0.000016
-0.000021
0.000018
0.000005
-0.000000
-0.000087
-0.000037
-0.000047
-0.000045
-0.000013
0.000034
0.000063
0.000105
0.000142
0.000094
0.000139
0.000113
0.000060
0.000121
0.000097
0.000076
0.000081
0.000084
0.000066
0.000026
-0.000003
-0.000011
-0.000024
-0.000084
-0.000037
-0.000079
-0.000116
-0.000084
-0.000058
-0.000060
-0.000026
-0.000042
-0.000024
0.000031
0.000076
0.000121
0.000115
0.000100
0.000097
0.000045
0.000031
0.000066
0.000016
0.000016
0.000018
0.000031
-0.000005
0.000005
-0.000021
-0.000018
-0.000018
0.000016
0.000068
0.000102
0.000102
0.000123
0.000144
0.000155
0.000186
0.000152
0.000136
0.000123
0.000105
0.000071
0.000100
0.000097
0.000034
0.000055
0.000060
0.000031
-0.000000
0.000013
0.000010
-0.000011
0.000008
0.000003
0.000034
0.000052
0.000113
0.000100
0.000108
0.000181
0.000155
0.000139
0.000155
0.000152
0.000144
0.000131
0.000126
0.000108
0.000089
0.000081
0.000037
0.000042
0.000060
0.000068
0.000047
0.000060
0.000087
0.000071
0.000076
0.000102
0.000121
0.000102
0.000152
0.000194
0.000181
0.000189
0.000186
0.000139
0.000121
0.000115
0.000079
0.000037
0.000045
0.000029
-0.000018
-0.000013
0.000024
0.000005
-0.000005
0.000047
0.000087
0.000060
0.000115
0.000149
0.000129
0.000118
0.000058
0.000024
0.000016
0.000029
-0.000008
0.000003
0.000050
0.000052
0.000039
0.000060
0.000084
0.000068
0.000039
0.000110
0.000089
0.000042
0.000052
0.000029
0.000045
0.000068
0.000052
0.000060
0.000102
0.000123
0.000144
0.000123
0.000144
0.000149
0.000110
0.000089
0.000097
0.000089
0.000037
0.000016
0.000016
0.000003
-0.000000
0.000024
-0.000024
-0.000029
0.000008
0.000003
0.000055
0.000073
0.000068
0.000123
0.000157
0.000157
0.000155
0.000134
0.000089
0.000081
0.000039
0.000068
0.000071
0.000008
0.000003
-0.000029
-0.000053
-0.000018
-0.000021
-0.000003
-0.000000
-0.000005
0.000016
0.000005
0.000047
0.000066
0.000031
0.000071
0.000071
0.000108
0.000097
0.000136
0.000149
0.000105
0.000097
0.000094
0.000037
0.000018
0.000060
0.000029
0.000010
0.000010
0.000003
0.000016
0.000071
0.000079
0.000068
0.000079
0.000105
0.000113
0.000113
0.000168
0.000189
0.000121
0.000105
0.000121
0.000123
0.000084
0.000102
0.000105
0.000073
0.000084
0.000047
0.000042
0.000052
0.000050
0.000024
0.000003
0.000018
-0.000005
0.000016
0.000100
0.000139
0.000131
0.000118
0.000168
0.000155
0.000163
0.000157
0.000121
0.000102
0.000102
0.000092
0.000039
0.000089
0.000066
0.000050
0.000037
0.000087
0.000092
0.000058
0.000110
0.000157
0.000123
0.000108
0.000155
0.000149
0.000147
0.000184
0.000197
0.000152
0.000147
0.000115
0.000108
0.000087
0.000079
0.000055
0.000026
0.000066
0.000050
0.000045
0.000068
0.000084
0.000084
0.000100
0.000121
0.000118
0.000131
0.000134
0.000139
0.000126
0.000139
0.000134
0.000126
0.000129
0.000110
0.000089
0.000084
0.000060
0.000081
0.000050
0.000055
0.000068
0.000037
0.000060
0.000066
0.000094
0.000134
0.000126
0.000152
0.000136
0.000084
0.000045
0.000042
0.000066
0.000071
0.000094
0.000115
0.000115
0.000152
0.000155
0.000155
0.000160
0.000123
0.000102
0.000110
0.000100
0.000087
0.000066
0.000055
0.000073
0.000055
0.000089
0.000100
0.000115
0.000144
0.000142
0.000181
0.000181
0.000157
0.000155
0.000149
0.000163
0.000118
0.000118
0.000113
0.000084
0.000097
0.000052
0.000094
0.000092
0.000092
0.000136
0.000102
0.000113
0.000176
0.000157
0.000189
0.000212
0.000157
0.000168
0.000142
0.000144
0.000155
0.000123
0.000118
0.000094
0.000071
0.000060
0.000052
0.000052
0.000068
0.000089
0.000087
0.000092
0.000121
0.000121
0.000110
0.000134
0.000147
0.000097
0.000126
0.000113
0.000097
0.000105
0.000097
0.000123
0.000094
0.000108
0.000149
0.000105
0.000136
0.000165
0.000100
0.000118
0.000110
0.000102
0.000092
0.000089
0.000108
0.000102
0.000081
0.000105
0.000087
0.000066
0.000118
0.000089
0.000097
0.000087
0.000123
0.000121
0.000118
0.000121
0.000087
0.000105
0.000094
0.000100
0.000126
0.000144
0.000157
0.000121
0.000102
0.000136
0.000115
0.000126
0.000139
0.000144
0.000123
0.000115
0.000123
0.000129
0.000123
0.000113
0.000108
0.000076
0.000052
0.000055
0.000089
0.000060
0.000084
0.000081
0.000071
0.000092
0.000089
0.000087
0.000118
0.000110
0.000076
0.000105
0.000129
0.000129
0.000126
0.000121
0.000136
0.000100
0.000126
0.000139
0.000108
0.000139
0.000142
0.000105
0.000094
0.000113
0.000042
0.000042
0.000073
0.000066
0.000110
0.000097
0.000131
0.000134
0.000121
0.000136
0.000160
0.000163
0.000131
0.000131
0.000157
0.000126
0.000147
0.000152
0.000163
0.000155
0.000134
0.000152
0.000157
0.000147
0.000147
0.000136
0.000129
0.000113
0.000108
0.000084
0.000068
0.000108
0.000113
0.000129
0.000134
0.000121
0.000108
0.000110
0.000105
0.000110
0.000108
0.000123
0.000131
0.000147
0.000134
0.000157
0.000155
0.000134
0.000136
0.000134
0.000155
0.000157
0.000160
0.000126
0.000126
0.000157
0.000129
0.000097
0.000134
0.000139
0.000139
0.000121
0.000147
0.000123
0.000081
0.000092
0.000100
0.000068
0.000052
0.000089
0.000142
0.000092
0.000110
0.000123
0.000144
0.000152
0.000160
0.000136
0.000147
0.000170
0.000123
0.000100
0.000105
0.000097
0.000058
0.000084
0.000118
0.000073
0.000097
0.000110
0.000097
0.000089
0.000110
0.000113
0.000089
0.000129
0.000152
0.000129
0.000136
0.000178
0.000189
0.000173
0.000199
0.000181
0.000184
0.000157
0.000165
0.000118
0.000076
0.000113
0.000052
0.000047
0.000026
0.000034
0.000050
0.000063
0.000110
0.000105
0.000129
0.000126
0.000129
0.000142
0.000155
0.000118
0.000131
0.000123
0.000123
0.000118
0.000105
0.000100
0.000136
0.000129
0.000149
0.000129
0.000142
0.000129
0.000123
0.000113
0.000113
0.000136
0.000131
0.000157
0.000191
0.000189
0.000160
0.000157
0.000168
0.000152
0.000123
0.000118
0.000129
0.000121
0.000147
0.000134
0.000139
0.000149
0.000163
0.000113
0.000139
0.000131
0.000100
0.000097
0.000092
0.000079
0.000081
0.000118
0.000129
0.000155
0.000139
0.000160
0.000170
0.000123
0.000139
0.000123
0.000118
0.000084
0.000055
0.000084
0.000094
0.000100
0.000087
0.000108
0.000173
0.000155
0.000165
0.000170
0.000194
0.000160
0.000139
0.000173
0.000160
0.000139
0.000189
0.000189
0.000189
0.000168
0.000184
0.000157
0.000181
0.000186
0.000139
0.000136
0.000155
0.000173
0.000160
0.000184
0.000212
0.000186
0.000189
0.000178
0.000163
0.000139
0.000134
0.000155
0.000142
0.000147
0.000194
0.000181
0.000168
0.000165
0.000170
0.000173
0.000157
0.000136
0.000121
0.000129
0.000149
0.000142
0.000118
0.000136
0.000152
0.000129
0.000144
0.000157
0.000136
0.000139
0.000139
0.000123
0.000097
0.000126
0.000121
0.000131
0.000165
0.000152
0.000102
0.000089
0.000047
0.000042
0.000076
0.000068
0.000087
0.000110
0.000094
0.000129
0.000181
0.000178
0.000168
0.000160
0.000178
0.000178
0.000194
0.000199
0.000220
0.000176
0.000168
0.000157
0.000176
0.000165
0.000147
0.000129
0.000110
0.000097
0.000089
0.000087
0.000060
0.000110
0.000102
0.000110
0.000115
0.000129
0.000149
0.000149
0.000199
0.000197
0.000186
0.000160
0.000142
0.000144
0.000163
0.000147
0.000165
0.000173
0.000152
0.000129
0.000149
0.000157
0.000157
0.000131
0.000102
0.000110
0.000118
0.000126
0.000178
0.000170
0.000191
0.000170
0.000191
0.000170
0.000202
0.000165
0.000134
0.000110
0.000094
0.000094
0.000060
0.000031
0.000066
0.000047
0.000073
0.000079
0.000071
0.000084
0.000076
0.000110
0.000121
0.000131
0.000168
0.000160
0.000152
0.000121
0.000157
0.000136
0.000152
0.000123
0.000118
0.000131
0.000113
0.000115
0.000102
0.000108
0.000121
0.000066
0.000102
0.000100
0.000084
0.000076
0.000115
0.000110
0.000105
0.000123
0.000129
0.000163
0.000186
0.000147
0.000165
0.000207
0.000197
0.000189
0.000191
0.000173
0.000126
0.000123
0.000134
0.000123
0.000094
0.000089
0.000123
0.000142
0.000155
0.000131
0.000136
0.000165
0.000181
0.000163
0.000191
0.000170
0.000163
0.000152
0.000170
0.000152
0.000152
0.000144
0.000157
0.000168
0.000144
0.000144
0.000136
0.000123
0.000129
0.000115
0.000123
0.000110
0.000136
0.000147
0.000139
0.000173
0.000149
0.000142
0.000168
0.000136
0.000160
0.000121
0.000170
0.000123
0.000115
0.000113
0.000113
0.000118
0.000094
0.000110
0.000136
0.000126
0.000152
0.000152
0.000168
0.000186
0.000170
0.000181
0.000163
0.000176
0.000194
0.000194
0.000252
0.000215
0.000215
0.000191
0.000178
0.000181
0.000131
0.000121
0.000110
0.000136
0.000123
0.000110
0.000108
0.000087
0.000050
0.000073
0.000094
0.000094
0.000113
0.000129
0.000189
0.000184
0.000191
0.000207
0.000212
0.000181
0.000184
0.000176
0.000189
0.000178
0.000191
0.000168
0.000168
0.000157
0.000144
0.000123
0.000134
0.000136
0.000094
0.000110
0.000121
0.000147
0.000147
0.000129
0.000152
0.000131
0.000121
0.000097
0.000155
0.000136
0.000170
0.000173
0.000189
0.000178
0.000165
0.000184
0.000139
0.000149
0.000123
0.000100
0.000134
0.000108
0.000129
0.000113
0.000149
0.000142
0.000163
0.000163
0.000165
0.000184
0.000189
0.000181
0.000163
0.000170
0.000152
0.000181
0.000152
0.000168
0.000170
0.000144
0.000163
0.000170
0.000199
0.000191
0.000202
0.000184
0.000212
0.000212
0.000184
0.000189
0.000170
0.000176
0.000136
0.000123
0.000115
0.000131
0.000149
0.000163
0.000181
0.000178
0.000184
0.000155
0.000157
0.000139
0.000152
0.000160
0.000136
0.000129
0.000170
0.000160
0.000186
0.000170
0.000199
0.000160
0.000163
0.000170
0.000178
0.000176
0.000163
0.000149
0.000144
0.000129
0.000126
0.000144
0.000163
0.000155
0.000126
0.000118
0.000139
0.000115
0.000123
0.000129
0.000152
0.000131
0.000157
0.000136
0.000178
0.000165
0.000173
0.000184
0.000184
0.000170
0.000163
0.000165
0.000191
0.000191
0.000157
0.000184
0.000155
0.000126
0.000165
0.000155
0.000139
0.000129
0.000139
0.000126
0.000142
0.000155
0.000157
0.000173
0.000173
0.000176
0.000191
0.000186
0.000205
0.000178
0.000202
0.000170
0.000157
0.000139
0.000142
0.000142
0.000123
0.000131
0.000102
0.000108
0.000139
0.000168
0.000168
0.000157
0.000165
0.000157
0.000173
0.000163
0.000176
0.000186
0.000176
0.000155
0.000139
0.000126
0.000121
0.000123
0.000136
0.000142
0.000147
0.000152
0.000144
0.000189
0.000186
0.000170
0.000178
0.000173
0.000152
0.000121
0.000139
0.000155
0.000152
0.000163
0.000170
0.000170
0.000186
0.000178
0.000197
0.000178
0.000170
0.000181
0.000189
0.000199
0.000191
0.000163
0.000155
0.000142
0.000118
0.000131
0.000173
0.000178
0.000163
0.000157
0.000157
0.000160
0.000113
0.000121
0.000147
0.000155
0.000155
0.000152
0.000155
0.000160
0.000131
0.000152
0.000163
0.000139
0.000097
0.000081
0.000121
0.000118
0.000129
0.000157
0.000165
0.000215
0.000199
0.000170
0.000194
0.000186
0.000160
0.000199
0.000184
0.000165
0.000189
0.000170
0.000163
0.000157
0.000155
0.000142
0.000131
0.000142
0.000131
0.000131
0.000147
0.000173
0.000194
0.000168
0.000194
0.000223
0.000207
0.000199
0.000176
0.000191
0.000178
0.000165
0.000160
0.000163
0.000160
0.000165
0.000186
0.000191
0.000207
0.000218
0.000226
0.000233
0.000194
0.000205
0.000173
0.000149
0.000157
0.000136
0.000152
0.000152
0.000160
0.000163
0.000184
0.000168
0.000191
0.000170
0.000186
0.000199
0.000181
0.000170
0.000160
0.000178
0.000168
0.000181
0.000199
0.000197
0.000215
0.000168
0.000168
0.000176
0.000144
0.000123
0.000129
0.000123
0.000142
0.000149
0.000163
0.000178
0.000176
0.000178
0.000170
0.000170
0.000178
0.000165
0.000147
0.000131
0.000126
0.000092
0.000100
0.000113
0.000131
0.000142
0.000168
0.000189
0.000163
0.000207
0.000215
0.000212
0.000186
0.000189
0.000205
0.000178
0.000163
0.000178
0.000189
0.000173
0.000189
0.000189
0.000215
0.000228
0.000189
0.000199
0.000220
0.000202
0.000165
0.000173
0.000155
0.000163
0.000147
0.000131
0.000160
0.000163
0.000144
0.000121
0.000108
0.000131
0.000134
0.000123
0.000115
0.000160
0.000168
0.000157
0.000165
0.000147
0.000165
0.000170
0.000186
0.000184
0.000205
0.000197
0.000186
0.000186
0.000173
0.000163
0.000152
0.000144
0.000168
0.000163
0.000184
0.000191
0.000202
0.000184
0.000176
0.000228
0.000197
0.000218
0.000241
0.000233
0.000215
0.000220
0.000157
0.000149
0.000136
0.000129
0.000163
0.000160
0.000176
0.000168
0.000186
0.000170
0.000170
0.000139
0.000160
0.000134
0.000094
0.000115
0.000134
0.000160
0.000165
0.000189
0.000210
0.000205
0.000207
0.000215
0.000205
0.000194
0.000176
0.000181
0.000176
0.000173
0.000131
0.000123
0.000149
0.000121
0.000147
0.000144
0.000184
0.000173
0.000189
0.000181
0.000218
0.000202
0.000178
0.000173
0.000184
0.000197
0.000168
0.000173
0.000210
0.000178
0.000165
0.000212
0.000181
0.000147
0.000160
0.000163
0.000170
0.000168
0.000168
0.000160
0.000176
0.000181
0.000142
0.000189
0.000176
0.000184
0.000194
0.000199
0.000226
0.000202
0.000178
0.000160
0.000144
0.000163
0.000178
0.000191
0.000168
0.000165
0.000210
0.000212
0.000194
0.000186
0.000191
0.000194
0.000152
0.000178
0.000173
0.000157
0.000157
0.000149
0.000142
0.000176
0.000178
0.000186
0.000189
0.000194
0.000199
0.000173
0.000184
0.000155
0.000105
0.000134
0.000136
0.000121
0.000149
0.000163
0.000152
0.000176
0.000189
0.000165
0.000189
0.000163
0.000155
0.000184
0.000170
0.000160
0.000184
0.000170
0.000173
0.000199
0.000197
0.000165
0.000142
0.000142
0.000136
0.000129
0.000121
0.000136
0.000149
0.000142
0.000165
0.000173
0.000152
0.000184
0.000176
0.000170
0.000194
0.000181
0.000186
0.000191
0.000181
0.000178
0.000173
0.000178
0.000178
0.000212
0.000197
0.000155
0.000189
0.000173
0.000152
0.000160
0.000178
0.000189
0.000212
0.000207
0.000212
0.000218
0.000199
0.000205
0.000199
0.000181
0.000199
0.000176
0.000181
0.000220
0.000210
0.000181
0.000197
0.000191
0.000181
0.000152
0.000178
0.000181
0.000181
0.000186
0.000142
0.000155
0.000163
0.000184
0.000186
0.000199
0.000218
0.000191
0.000220
0.000223
0.000199
0.000163
0.000142
0.000152
0.000147
0.000129
0.000149
0.000170
0.000139
0.000129
0.000163
0.000176
0.000160
0.000170
0.000173
0.000176
0.000165
0.000163
0.000178
0.000207
0.000176
0.000163
0.000176
0.000181
0.000184
0.000160
0.000160
0.000197
0.000163
0.000136
0.000165
0.000184
0.000165
0.000181
0.000165
0.000170
0.000136
0.000123
0.000118
0.000115
0.000115
0.000134
0.000157
0.000157
0.000165
0.000173
0.000215
0.000197
0.000191
0.000157
0.000178
0.000170
0.000139
0.000163
0.000157
0.000181
0.000155
0.000165
0.000173
0.000194
0.000207
0.000176
0.000210
0.000202
0.000210
0.000194
0.000181
0.000215
0.000197
0.000199
0.000210
0.000205
0.000202
0.000205
0.000218
0.000215
0.000223
0.000215
0.000207
0.000199
0.000207
0.000170
0.000163
0.000160
0.000155
0.000129
0.000134
0.000139
0.000118
0.000121
0.000157
0.000157
0.000155
0.000181
0.000165
0.000163
0.000212
0.000199
0.000191
0.000176
0.000202
0.000199
0.000197
0.000223
0.000194
0.000170
0.000178
0.000176
0.000147
0.000129
0.000149
0.000149
0.000176
0.000181
0.000186
0.000210
0.000184
0.000186
0.000199
0.000160
0.000186
0.000186
0.000186
0.000184
0.000189
0.000173
0.000163
0.000155
0.000097
0.000123
0.000142
0.000163
0.000176
0.000160
0.000199
0.000220
0.000207
0.000191
0.000194
0.000202
0.000191
0.000207
0.000210
0.000199
0.000184
0.000189
0.000199
0.000205
0.000176
0.000163
0.000199
0.000197
0.000181
0.000199
0.000210
0.000194
0.000191
0.000212
0.000220
0.000218
0.000202
0.000212
0.000218
0.000205
0.000236
0.000178
0.000186
0.000163
0.000147
0.000184
0.000194
0.000178
0.000207
0.000165
0.000202
0.000199
0.000178
0.000207
0.000173
0.000189
0.000186
0.000223
0.000202
0.000189
0.000176
0.000173
0.000170
0.000144
0.000170
0.000139
0.000152
0.000131
0.000149
0.000178
0.000210
0.000239
0.000215
0.000199
0.000197
0.000191
0.000189
0.000186
0.000186
0.000173
0.000199
0.000205
0.000220
0.000197
0.000210
0.000199
0.000197
0.000199
0.000202
0.000176
0.000184
0.000152
0.000178
0.000157
0.000163
0.000202
0.000186
0.000212
0.000236
0.000223
0.000202
0.000210
0.000194
0.000191
0.000207
0.000220
0.000226
0.000223
0.000210
0.000212
0.000226
0.000197
0.000202
0.000212
0.000194
0.000205
0.000186
0.000178
0.000202
0.000207
0.000189
0.000205
0.000197
0.000207
0.000184
0.000176
0.000184
0.000176
0.000163
0.000165
0.000170
0.000134
0.000129
0.000157
0.000160
0.000160
0.000205
0.000197
0.000210
0.000212
0.000181
0.000168
0.000165
0.000186
0.000194
0.000165
0.000165
0.000181
0.000165
0.000181
0.000197
0.000189
0.000176
0.000170
0.000186
0.000184
0.000191
0.000163
0.000165
0.000170
0.000189
0.000191
0.000218
0.000231
0.000233
0.000231
0.000220
0.000241
0.000252
0.000207
0.000215
0.000233
0.000191
0.000199
0.000189
0.000223
0.000189
0.000165
0.000181
0.000178
0.000194
0.000189
0.000210
0.000226
0.000205
0.000207
0.000252
0.000236
0.000199
0.000223
0.000199
0.000205
0.000199
0.000186
0.000207
0.000168
0.000178
0.000157
0.000184
0.000189
0.000155
0.000205
0.000199
0.000194
0.000218
0.000239
0.000244
0.000247
0.000228
0.000223
0.000247
0.000241
0.000202
0.000236
0.000231
0.000194
0.000199
0.000184
0.000189
0.000165
0.000170
0.000194
0.000186
0.000181
0.000178
0.000184
0.000194
0.000184
0.000155
0.000168
0.000197
0.000186
0.000207
0.000205
0.000199
0.000220
0.000202
0.000189
0.000231
0.000236
0.000194
0.000233
0.000212
0.000191
0.000207
0.000202
0.000173
0.000157
0.000134
0.000110
0.000147
0.000152
0.000181
0.000155
0.000176
0.000184
0.000181
0.000184
0.000191
0.000173
0.000197
0.000239
0.000189
0.000205
0.000233
0.000194
0.000199
0.000218
0.000181
0.000184
0.000212
0.000212
0.000220
0.000207
0.000218
0.000186
0.000173
0.000160
0.000165
0.000199
0.000178
0.000178
0.000199
0.000218
0.000210
0.000176
0.000189
0.000207
0.000199
0.000165
0.000181
0.000194
0.000181
0.000186
0.000210
0.000218
0.000191
0.000205
0.000207
0.000223
0.000205
0.000202
0.000186
0.000168
0.000170
0.000152
0.000165
0.000189
0.000173
0.000181
0.000191
0.000202
0.000168
0.000191
0.000197
0.000191
0.000168
0.000168
0.000220
0.000191
0.000199
0.000155
0.000191
0.000181
0.000176
0.000202
0.000241
0.000241
0.000239
0.000194
0.000239
0.000239
0.000194
0.000210
0.000215
0.000176
0.000163
0.000160
0.000191
0.000144
0.000168
0.000186
0.000218
0.000215
0.000236
0.000210
0.000215
0.000210
0.000218
0.000173
0.000194
0.000189
0.000168
0.000194
0.000212
0.000191
0.000186
0.000168
0.000186
0.000176
0.000194
0.000202
0.000197
0.000181
0.000189
0.000207
0.000202
0.000231
0.000202
0.000189
0.000184
0.000186
0.000173
0.000136
0.000155
0.000181
0.000157
0.000178
0.000194
0.000186
0.000215
0.000223
0.000202
0.000194
0.000194
0.000157
0.000170
0.000168
0.000160
0.000197
0.000181
0.000189
0.000184
0.000207
0.000231
0.000228
0.000215
0.000191
0.000199
0.000173
0.000160
0.000173
0.000165
0.000160
0.000191
0.000155
0.000170
0.000184
0.000163
0.000202
0.000189
0.000178
0.000176
0.000181
0.000181
0.000191
0.000184
0.000176
0.000207
0.000178
0.000194
0.000168
0.000147
0.000157
0.000155
0.000155
0.000184
0.000207
0.000218
0.000207
0.000228
0.000226
0.000205
0.000189
0.000197
0.000191
0.000176
0.000176
0.000163
0.000186
0.000178
0.000165
0.000152
0.000178
0.000184
0.000184
0.000197
0.000212
0.000215
0.000210
0.000210
0.000191
0.000176
0.000149
0.000168
0.000181
0.000186
0.000168
0.000191
0.000197
0.000181
0.000191
0.000181
0.000186
0.000205
0.000191
0.000184
0.000191
0.000199
0.000199
0.000181
0.000189
0.000181
0.000147
0.000155
0.000142
0.000163
0.000147
0.000184
0.000186
0.000176
0.000215
0.000199
0.000207
0.000212
0.000212
0.000207
0.000205
0.000199
0.000194
0.000186
0.000178
0.000184
0.000144
0.000168
0.000191
0.000163
0.000163
0.000202
0.000212
0.000173
0.000202
0.000220
0.000189
0.000210
0.000191
0.000189
0.000218
0.000191
0.000186
0.000215
0.000191
0.000202
0.000176
0.000212
0.000199
0.000165
0.000215
0.000181
0.000186
0.000173
0.000181
0.000189
0.000181
0.000160
0.000176
0.000194
0.000186
0.000178
0.000178
0.000184
0.000194
0.000207
0.000212
0.000218
0.000202
0.000220
0.000223
0.000228
0.000226
0.000228
0.000212
0.000231
0.000205
0.000231
0.000202
0.000165
0.000155
0.000157
0.000134
0.000142
0.000123
0.000160
0.000139
0.000142
0.000163
0.000165
0.000178
0.000184
0.000173
0.000163
0.000207
0.000173
0.000160
0.000197
0.000165
0.000178
0.000181
0.000186
0.000176
0.000165
0.000197
0.000184
0.000191
0.000205
0.000205
0.000212
0.000215
0.000170
0.000184
0.000189
0.000199
0.000194
0.000189
0.000186
0.000194
0.000197
0.000191
0.000194
0.000184
0.000163
0.000186
0.000176
0.000168
0.000189
0.000189
0.000210
0.000186
0.000173
0.000197
0.000176
0.000165
0.000181
0.000184
0.000176
0.000191
0.000189
0.000207
0.000218
0.000212
0.000207
0.000194
0.000210
0.000210
0.000197
0.000184
0.000189
0.000165
0.000223
0.000207
0.000191
0.000184
0.000194
0.000194
0.000189
0.000207
0.000231
0.000233
0.000218
0.000218
0.000184
0.000210
0.000191
0.000186
0.000210
0.000205
0.000205
0.000191
0.000205
0.000176
0.000160
0.000142
0.000181
0.000189
0.000210
0.000207
0.000239
0.000220
0.000226
0.000236
0.000231
0.000223
0.000226
0.000189
0.000220
0.000220
0.000186
0.000181
0.000176
0.000181
0.000142
0.000152
0.000173
0.000205
0.000189
0.000199
0.000220
0.000212
0.000197
0.000220
0.000228
0.000212
0.000223
0.000202
0.000231
0.000218
0.000194
0.000228
0.000189
0.000181
0.000178
0.000184
0.000212
0.000202
0.000189
0.000223
0.000228
0.000207
0.000215
0.000215
0.000205
0.000165
0.000184
0.000186
0.000239
0.000189
0.000181
0.000197
0.000207
0.000191
0.000186
0.000199
0.000212
0.000210
0.000202
0.000184
0.000163
0.000155
0.000160
0.000155
0.000197
0.000184
0.000186
0.000197
0.000210
0.000197
0.000155
0.000173
0.000205
0.000144
0.000197
0.000212
0.000199
0.000197
0.000202
0.000191
0.000212
0.000160
0.000165
0.000178
0.000176
0.000189
0.000176
0.000186
0.000220
0.000197
0.000189
0.000191
0.000160
0.000157
0.000178
0.000176
0.000181
0.000199
0.000186
0.000173
0.000184
0.000194
0.000197
0.000191
0.000199
0.000202
0.000176
0.000170
0.000197
0.000173
0.000199
0.000184
0.000202
0.000189
0.000189
0.000202
0.000168
0.000191
0.000178
0.000168
0.000181
0.000205
0.000168
0.000168
0.000176
0.000191
0.000218
0.000194
0.000205
0.000186
0.000197
0.000189
0.000212
0.000207
0.000191
0.000178
0.000173
0.000186
0.000197
0.000173
0.000184
0.000215
0.000236
0.000189
0.000191
0.000210
0.000165
0.000173
0.000186
0.000207
0.000205
0.000205
0.000199
0.000220
0.000191
0.000181
0.000191
0.000226
0.000160
0.000163
0.000184
0.000176
0.000197
0.000165
0.000194
0.000215
0.000165
0.000149
0.000173
0.000207
0.000205
0.000202
0.000207
0.000199
0.000168
0.000184
0.000218
0.000212
0.000210
0.000228
0.000228
0.000220
0.000223
0.000178
0.000226
0.000210
0.000173
0.000186
0.000207
0.000205
0.000220
0.000199
0.000207
0.000202
0.000165
0.000176
0.000189
0.000197
0.000160
0.000176
0.000191
0.000170
0.000173
0.000149
0.000165
0.000181
0.000170
0.000170
0.000197
0.000184
0.000191
0.000199
0.000218
0.000207
0.000202
0.000199
0.000199
0.000189
0.000220
0.000197
0.000215
0.000233
0.000239
0.000231
0.000228
0.000212
0.000191
0.000181
0.000202
0.000199
0.000197
0.000212
0.000220
0.000226
0.000215
0.000223
0.000228
0.000202
0.000207
0.000236
0.000207
0.000199
0.000233
0.000220
0.000163
0.000186
0.000194
0.000189
0.000223
0.000184
0.000173
0.000170
0.000199
0.000165
0.000181
0.000184
0.000184
0.000168
0.000173
0.000170
0.000163
0.000173
0.000202
0.000202
0.000184
0.000218
0.000218
0.000202
0.000212
0.000199
0.000184
0.000202
0.000202
0.000218
0.000212
0.000186
0.000210
0.000199
0.000197
0.000181
0.000207
0.000223
0.000233
0.000199
0.000226
0.000252
0.000231
0.000202
0.000212
0.000207
0.000199
0.000176
0.000212
0.000197
0.000202
0.000197
0.000212
0.000218
0.000189
0.000212
0.000199
0.000202
0.000207
0.000168
0.000181
0.000199
0.000157
0.000170
0.000212
0.000197
0.000170
0.000207
0.000215
0.000226
0.000207
0.000210
0.000228
0.000194
0.000205
0.000212
0.000220
0.000215
0.000191
0.000207
0.000223
0.000202
0.000215
0.000215
0.000236
0.000199
0.000212
0.000197
0.000210
0.000189
0.000163
0.000157
0.000163
0.000168
0.000176
0.000173
0.000189
0.000184
0.000170
0.000170
0.000176
0.000191
0.000207
0.000212
0.000202
0.000194
0.000191
0.000218
0.000218
0.000226
0.000212
0.000226
0.000231
0.000215
0.000207
0.000197
0.000181
0.000173
0.000205
0.000176
0.000218
0.000189
0.000210
0.000220
0.000226
0.000223
0.000212
0.000197
0.000215
0.000210
0.000173
0.000207
0.000170
0.000207
0.000197
0.000197
0.000163
0.000186
0.000186
0.000186
0.000210
0.000197
0.000205
0.000197
0.000186
0.000194
0.000170
0.000199
0.000207
0.000189
0.000189
0.000202
0.000220
0.000220
0.000247
0.000228
0.000205
0.000223
0.000207
0.000184
0.000178
0.000220
0.000173
0.000176
0.000178
0.000212
0.000189
0.000194
0.000184
0.000207
0.000197
0.000194
0.000223
0.000226
0.000210
0.000212
0.000191
0.000210
0.000202
0.000194
0.000199
0.000215
0.000205
0.000173
0.000199
0.000173
0.000178
0.000184
0.000210
0.000199
0.000210
0.000231
0.000205
0.000176
0.000194
0.000189
0.000202
0.000215
0.000207
0.000207
0.000202
0.000220
0.000205
0.000212
0.000218
0.000197
0.000191
0.000194
0.000163
0.000168
0.000181
0.000189
0.000178
0.000163
0.000181
0.000173
0.000178
0.000186
0.000197
0.000202
0.000220
0.000220
0.000194
0.000223
0.000212
0.000247
0.000191
0.000197
0.000220
0.000220
0.000205
0.000194
0.000212
0.000194
0.000220
0.000205
0.000202
0.000165
0.000178
0.000194
0.000212
0.000210
0.000218
0.000199
0.000212
0.000254
0.000228
0.000205
0.000265
0.000231
0.000207
0.000220
0.000186
0.000170
0.000210
0.000202
0.000184
0.000191
0.000218
0.000202
0.000165
0.000202
0.000218
0.000194
0.000220
0.000220
0.000205
0.000226
0.000233
0.000210
0.000199
0.000233
0.000239
0.000194
0.000228
0.000194
0.000205
0.000210
0.000252
0.000220
0.000247
0.000215
0.000228
0.000215
0.000226
0.000252
0.000207
0.000210
0.000236
0.000210
0.000191
0.000215
0.000212
0.000207
0.000247
0.000226
0.000212
0.000197
0.000194
0.000194
0.000189
0.000212
0.000191
0.000184
0.000194
0.000199
0.000178
0.000191
0.000207
0.000215
0.000194
0.000168
0.000220
0.000210
0.000170
0.000205
0.000178
0.000176
0.000176
0.000194
0.000210
0.000210
0.000231
0.000210
0.000181
0.000218
0.000197
0.000202
0.000210
0.000181
0.000178
0.000189
0.000181
0.000189
0.000199
0.000207
0.000197
0.000197
0.000210
0.000191
0.000226
0.000210
0.000215
0.000212
0.000212
0.000233
0.000223
0.000205
0.000233
0.000228
0.000226
0.000220
0.000231
0.000212
0.000233
0.000215
0.000207
0.000189
0.000212
0.000181
0.000170
0.000176
0.000155
0.000189
0.000186
0.000189
0.000218
0.000173
0.000194
0.000212
0.000189
0.000205
0.000231
0.000199
0.000178
0.000176
0.000194
0.000194
0.000189
0.000173
0.000202
0.000189
0.000184
0.000194
0.000207
0.000218
0.000207
0.000207
0.000231
0.000220
0.000189
0.000194
0.000189
0.000163
0.000184
0.000194
0.000194
0.000170
0.000210
0.000170
0.000199
0.000207
0.000165
0.000191
0.000228
0.000181
0.000176
0.000218
0.000223
0.000186
0.000194
0.000215
0.000202
0.000212
0.000212
0.000226
0.000220
0.000199
0.000215
0.000210
0.000236
0.000212
0.000205
0.000210
0.000254
0.000212
0.000207
0.000178
0.000220
0.000210
0.000186
0.000220
0.000233
0.000197
0.000191
0.000233
0.000239
0.000239
0.000228
0.000215
0.000257
0.000220
0.000191
0.000189
0.000178
0.000212
0.000186
0.000186
0.000228
0.000233
0.000178
0.000181
0.000210
0.000181
0.000168
0.000181
0.000189
0.000163
0.000207
0.000184
0.000194
0.000218
0.000210
0.000212
0.000233
0.000212
0.000202
0.000199
0.000207
0.000210
0.000212
0.000226
0.000231
0.000223
0.000210
0.000249
0.000233
0.000197
0.000220
0.000218
0.000207
0.000205
0.000226
0.000233
0.000254
0.000244
0.000228
0.000257
0.000241
0.000241
0.000228
0.000220
0.000207
0.000210
0.000205
0.000199
0.000231
0.000189
0.000191
0.000194
0.000186
0.000205
0.000228
0.000218
0.000218
0.000223
0.000212
0.000226
0.000260
0.000233
0.000239
0.000252
0.000233
0.000199
0.000189
0.000194
0.000199
0.000181
0.000215
0.000210
0.000191
0.000218
0.000220
0.000184
0.000226
0.000205
0.000218
0.000197
0.000189
0.000210
0.000194
0.000184
0.000228
0.000215
0.000186
0.000173
0.000194
0.000191
0.000176
0.000163
0.000194
0.000199
0.000139
0.000170
0.000212
0.000231
0.000218
0.000223
0.000228
0.000215
0.000205
0.000186
0.000228
0.000210
0.000189
0.000191
0.000184
0.000170
0.000165
0.000199
0.000163
0.000176
0.000170
0.000149
0.000176
0.000178
0.000149
0.000155
0.000170
0.000197
0.000184
0.000186
0.000218
0.000163
0.000165
0.000176
0.000189
0.000210
0.000210
0.000212
0.000212
0.000220
0.000215
0.000207
0.000218
0.000205
0.000197
0.000220
0.000215
0.000197
0.000181
0.000178
0.000202
0.000189
0.000223
0.000207
0.000202
0.000210
0.000215
0.000215
0.000236
0.000226
0.000212
0.000210
0.000223
0.000244
0.000218
0.000228
0.000231
0.000207
0.000205
0.000189
0.000223
0.000218
0.000202
0.000207
0.000202
0.000210
0.000215
0.000247
0.000223
0.000220
0.000223
0.000218
0.000226
0.000220
0.000194
0.000191
0.000220
0.000184
0.000181
0.000197
0.000191
0.000160
0.000144
0.000144
0.000170
0.000149
0.000147
0.000157
0.000163
0.000205
0.000197
0.000186
0.000228
0.000199
0.000194
0.000194
0.000218
0.000228
0.000215
0.000194
0.000220
0.000228
0.000215
0.000199
0.000239
0.000220
0.000228
0.000215
0.000199
0.000212
0.000215
0.000184
0.000210
0.000194
0.000149
0.000160
0.000191
0.000218
0.000205
0.000218
0.000220
0.000215
0.000199
0.000220
0.000202
0.000226
0.000212
0.000205
0.000220
0.000233
0.000191
0.000207
0.000197
0.000202
0.000215
0.000189
0.000197
0.000212
0.000233
0.000194
0.000223
0.000223
0.000191
0.000197
0.000228
0.000186
0.000197
0.000199
0.000194
0.000178
0.000181
0.000186
0.000205
0.000197
0.000205
0.000184
0.000165
0.000170
0.000178
0.000194
0.000189
0.000205
0.000170
0.000210
0.000189
0.000199
0.000210
0.000191
0.000212
0.000220
0.000194
0.000218
0.000207
0.000184
0.000197
0.000189
0.000134
0.000131
0.000149
0.000155
0.000173
0.000210
0.000197
0.000181
0.000197
0.000205
0.000194
0.000184
0.000184
0.000205
0.000205
0.000181
0.000212
0.000212
0.000205
0.000186
0.000184
0.000184
0.000173
0.000165
0.000168
0.000191
0.000197
0.000163
0.000207
0.000220
0.000199
0.000181
0.000199
0.000226
0.000210
0.000173
0.000186
0.000184
0.000173
0.000184
0.000199
0.000223
0.000223
0.000215
0.000202
0.000215
0.000197
0.000210
0.000220
0.000197
0.000191
0.000168
0.000205
0.000207
0.000191
0.000184
0.000202
0.000220
0.000189
0.000197
0.000226
0.000207
0.000191
0.000223
0.000236
0.000218
0.000241
0.000239
0.000207
0.000207
0.000226
0.000199
0.000223
0.000220
0.000212
0.000220
0.000233
0.000207
0.000202
0.000207
0.000202
0.000186
0.000191
0.000202
0.000197
0.000170
0.000178
0.000199
0.000236
0.000220
0.000241
0.000247
0.000220
0.000231
0.000239
0.000210
0.000194
0.000231
0.000210
0.000228
0.000210
0.000197
0.000202
0.000191
0.000199
0.000191
0.000189
0.000218
0.000218
0.000181
0.000207
0.000249
0.000173
0.000236
0.000226
0.000202
0.000202
0.000226
0.000220
0.000207
0.000212
0.000210
0.000205
0.000202
0.000181
0.000207
0.000184
0.000197
0.000194
0.000173
0.000168
0.000152
0.000168
0.000189
0.000194
0.000163
0.000160
0.000176
0.000170
0.000170
0.000160
0.000233
0.000212
0.000202
0.000228
0.000215
0.000212
0.000189
0.000157
0.000178
0.000160
0.000168
0.000186
0.000215
0.000220
0.000205
0.000197
0.000220
0.000218
0.000207
0.000244
0.000226
0.000207
0.000205
0.000205
0.000199
0.000212
0.000184
0.000210
0.000207
0.000181
0.000184
0.000210
0.000202
0.000210
0.000210
0.000218
0.000218
0.000226
0.000189
0.000205
0.000194
0.000155
0.000165
0.000197
0.000205
0.000191
0.000212
0.000231
0.000244
0.000236
0.000244
0.000236
0.000212
0.000226
0.000226
0.000220
0.000207
0.000207
0.000194
0.000215
0.000207
0.000199
0.000226
0.000223
0.000226
0.000210
0.000184
0.000191
0.000207
0.000205
0.000197
0.000184
0.000205
0.000220
0.000233
0.000220
0.000236
0.000218
0.000215
0.000233
0.000223
0.000189
0.000194
0.000197
0.000194
0.000181
0.000163
0.000157
0.000168
0.000194
0.000205
0.000194
0.000215
0.000191
0.000199
0.000191
0.000194
0.000191
0.000173
0.000218
0.000191
0.000189
0.000205
0.000168
0.000202
0.000186
0.000176
0.000202
0.000207
0.000223
0.000223
0.000236
0.000220
0.000236
0.000231
0.000215
0.000207
0.000220
0.000223
0.000205
0.000236
0.000215
0.000186
0.000197
0.000199
0.000223
0.000207
0.000212
0.000205
0.000202
0.000191
0.000189
0.000199
0.000202
0.000207
0.000207
0.000220
0.000220
0.000189
0.000260
0.000252
0.000210
0.000254
0.000249
0.000215
0.000228
0.000220
0.000199
0.000231
0.000173
0.000207
0.000220
0.000191
0.000228
0.000215
0.000199
0.000236
0.000231
0.000199
0.000260
0.000220
0.000226
0.000215
0.000205
0.000212
0.000194
0.000178
0.000223
0.000207
0.000181
0.000160
0.000199
0.000184
0.000184
0.000160
0.000157
0.000199
0.000139
0.000147
0.000144
0.000173
0.000152
0.000184
0.000194
0.000199
0.000226
0.000223
0.000247
0.000257
0.000241
0.000220
0.000197
0.000181
0.000191
0.000186
0.000178
0.000184
0.000163
0.000170
0.000165
0.000202
0.000186
0.000215
0.000241
0.000218
0.000218
0.000205
0.000223
0.000228
0.000215
0.000220
0.000220
0.000202
0.000244
0.000215
0.000202
0.000199
0.000170
0.000189
0.000173
0.000194
0.000147
0.000186
0.000178
0.000181
0.000186
0.000199
0.000199
0.000191
0.000191
0.000186
0.000205
0.000199
0.000202
0.000223
0.000218
0.000247
0.000228
0.000218
0.000215
0.000207
0.000170
0.000170
0.000202
0.000199
0.000207
0.000181
0.000176
0.000191
0.000163
0.000173
0.000205
0.000189
0.000181
0.000184
0.000181
0.000194
0.000205
0.000210
0.000210
0.000244
0.000186
0.000210
0.000189
0.000189
0.000178
0.000178
0.000160
0.000181
0.000173
0.000173
0.000163
0.000168
0.000157
0.000170
0.000163
0.000197
0.000226
0.000160
0.000173
0.000207
0.000194
0.000191
0.000207
0.000207
0.000205
0.000199
0.000189
0.000220
0.000207
0.000184
0.000212
0.000205
0.000168
0.000157
0.000136
0.000144
0.000173
0.000157
0.000191
0.000205
0.000168
0.000210
0.000228
0.000218
0.000254
0.000218
0.000239
0.000236
0.000199
0.000207
0.000202
0.000184
0.000186
0.000205
0.000210
0.000210
t0(sec) = 0.000000E+0
dt(sec) = 4.000000E-10
F2:INSP "
DESCRIPTOR_NAME    : WAVEDESC           
TEMPLATE_NAME      : LECROY_2_3         
COMM_TYPE          : word               
COMM_ORDER         : HIFIRST            
WAVE_DESCRIPTOR    : 346                
USER_TEXT          : 0                  
RES_DESC1          : 0                  
TRIGTIME_ARRAY     : 0                  
RIS_TIME_ARRAY     : 0                  
RES_ARRAY1         : 0                  
WAVE_ARRAY_1       : 10002              
WAVE_ARRAY_2       : 0                  
RES_ARRAY2         : 0                  
RES_ARRAY3         : 0                  
INSTRUMENT_NAME    : LECROYHDO6104      
INSTRUMENT_NUMBER  : 6308               
TRACE_LABEL        :                    
RESERVED1          : 5001               
RESERVED2          : 0                  
WAVE_ARRAY_COUNT   : 5001               
PNTS_PER_SCREEN    : 5000               
FIRST_VALID_PNT    : 0                  
LAST_VALID_PNT     : 5000               
FIRST_POINT        : 0                  
SPARSING_FACTOR    : 1                  
SEGMENT_INDEX      : 0                  
SUBARRAY_COUNT     : 1                  
SWEEPS_PER_ACQ     : 200                
POINTS_PER_PAIR    : 0                  
PAIR_OFFSET        : 0                  
VERTICAL_GAIN      : 2.6238e-006        
VERTICAL_OFFSET    : 4.2500e-002        
MAX_VALUE          : 3.2512e+004        
MIN_VALUE          : -2.5373e+004       
NOMINAL_BITS       : 16                 
NOM_SUBARRAY_COUNT : 1                  
HORIZ_INTERVAL     : 4.0000e-010        
HORIZ_OFFSET       : -2.00000000e-007   
PIXEL_OFFSET       : -2.00000000e-007   
VERTUNIT           : Unit Name = V
HORUNIT            : Unit Name = S
HORIZ_UNCERTAINTY  : 1.0000e-012        
TRIGGER_TIME       : Date = APR 17, 2024, Time = 19:13:28.228644219
ACQ_DURATION       : 9.9991e+000        
RECORD_TYPE        : single_sweep       
PROCESSING_DONE    : no_processing      
RESERVED5          : 0                  
RIS_SWEEPS         : 1                  
TIMEBASE           : 200_ns/div         
VERT_COUPLING      : DC_50_Ohms         
PROBE_ATT          : 1.0000e+000        
FIXED_VERT_GAIN    : 20_mV/div          
BANDWIDTH_LIMIT    : off                
VERTICAL_VERNIER   : 1.0500e+000        
ACQ_VERT_OFFSET    : 0.0000e+000        
WAVE_SOURCE        : UNKNOWN            
"
0.001372
0.001354
0.001380
0.001388
0.001398
0.001370
0.001388
0.001404
0.001406
0.001388
0.001393
0.001422
0.001380
0.001380
0.001396
0.001412
0.001406
0.001391
0.001425
0.001406
0.001404
0.001412
0.001388
0.001375
0.001422
0.001396
0.001417
0.001404
0.001398
0.001393
0.001406
0.001409
0.001349
0.001338
0.001367
0.001404
0.001404
0.001409
0.001404
0.001412
0.001406
0.001388
0.001409
0.001404
0.001398
0.001396
0.001396
0.001412
0.001440
0.001404
0.001401
0.001414
0.001409
0.001396
0.001391
0.001404
0.001417
0.001406
0.001412
0.001422
0.001412
0.001414
0.001406
0.001401
0.001412
0.001383
0.001383
0.001401
0.001398
0.001396
0.001414
0.001406
0.001409
0.001425
0.001404
0.001398
0.001409
0.001404
0.001409
0.001393
0.001406
0.001377
0.001385
0.001385
0.001406
0.001419
0.001412
0.001412
0.001419
0.001388
0.001409
0.001393
0.001391
0.001383
0.001383
0.001393
0.001427
0.001401
0.001427
0.001433
0.001417
0.001417
0.001417
0.001433
0.001396
0.001409
0.001409
0.001396
0.001412
0.001391
0.001388
0.001377
0.001401
0.001385
0.001406
0.001430
0.001409
0.001396
0.001406
0.001404
0.001404
0.001393
0.001401
0.001383
0.001412
0.001391
0.001398
0.001404
0.001417
0.001404
0.001393
0.001398
0.001404
0.001377
0.001412
0.001388
0.001422
0.001406
0.001409
0.001417
0.001409
0.001364
0.001393
0.001377
0.001391
0.001375
0.001398
0.001404
0.001412
0.001388
0.001388
0.001425
0.001396
0.001375
0.001398
0.001406
0.001406
0.001388
0.001414
0.001409
0.001401
0.001404
0.001414
0.001406
0.001446
0.001388
0.001396
0.001377
0.001375
0.001401
0.001377
0.001380
0.001404
0.001393
0.001388
0.001422
0.001414
0.001401
0.001393
0.001406
0.001414
0.001404
0.001396
0.001414
0.001401
0.001375
0.001396
0.001393
0.001433
0.001398
0.001385
0.001401
0.001422
0.001388
0.001388
0.001446
0.001383
0.001388
0.001391
0.001406
0.001406
0.001393
0.001393
0.001396
0.001404
0.001391
0.001396
0.001409
0.001404
0.001398
0.001398
0.001398
0.001412
0.001380
0.001396
0.001404
0.001419
0.001380
0.001398
0.001409
0.001391
0.001398
0.001406
0.001393
0.001372
0.001359
0.001349
0.001375
0.001380
0.001391
0.001417
0.001417
0.001414
0.001401
0.001391
0.001417
0.001383
0.001377
0.001388
0.001404
0.001385
0.001385
0.001388
0.001385
0.001419
0.001398
0.001396
0.001430
0.001435
0.001417
0.001417
0.001417
0.001412
0.001388
0.001414
0.001417
0.001412
0.001383
0.001391
0.001396
0.001425
0.001391
0.001412
0.001404
0.001391
0.001412
0.001414
0.001388
0.001406
0.001396
0.001409
0.001419
0.001401
0.001406
0.001391
0.001414
0.001427
0.001391
0.001398
0.001406
0.001412
0.001391
0.001404
0.001375
0.001406
0.001393
0.001401
0.001419
0.001404
0.001380
0.001422
0.001375
0.001393
0.001383
0.001406
0.001377
0.001391
0.001380
0.001380
0.001414
0.001417
0.001383
0.001372
0.001338
0.001359
0.001377
0.001388
0.001388
0.001404
0.001409
0.001404
0.001406
0.001435
0.001412
0.001406
0.001433
0.001419
0.001383
0.001409
0.001427
0.001425
0.001404
0.001409
0.001412
0.001406
0.001359
0.001404
0.001406
0.001393
0.001391
0.001406
0.001391
0.001419
0.001406
0.001401
0.001443
0.001417
0.001404
0.001427
0.001433
0.001422
0.001401
0.001391
0.001409
0.001409
0.001367
0.001385
0.001385
0.001388
0.001391
0.001380
0.001406
0.001414
0.001393
0.001393
0.001414
0.001422
0.001388
0.001396
0.001404
0.001412
0.001401
0.001401
0.001412
0.001427
0.001388
0.001409
0.001404
0.001372
0.001417
0.001377
0.001401
0.001396
0.001370
0.001391
0.001391
0.001419
0.001377
0.001385
0.001388
0.001370
0.001380
0.001388
0.001412
0.001398
0.001383
0.001414
0.001419
0.001391
0.001409
0.001409
0.001412
0.001414
0.001425
0.001396
0.001401
0.001419
0.001388
0.001398
0.001398
0.001406
0.001388
0.001427
0.001409
0.001404
0.001370
0.001414
0.001412
0.001401
0.001367
0.001417
0.001422
0.001401
0.001414
0.001404
0.001433
0.001391
0.001372
0.001391
0.001422
0.001393
0.001383
0.001412
0.001383
0.001364
0.001367
0.001377
0.001388
0.001406
0.001385
0.001401
0.001406
0.001404
0.001383
0.001385
0.001404
0.001404
0.001401
0.001377
0.001398
0.001385
0.001372
0.001354
0.001330
0.001362
0.001370
0.001412
0.001438
0.001401
0.001398
0.001401
0.001398
0.001419
0.001398
0.001383
0.001396
0.001383
0.001388
0.001398
0.001393
0.001443
0.001391
0.001401
0.001425
0.001375
0.001354
0.001385
0.001430
0.001448
0.001451
0.001427
0.001406
0.001396
0.001393
0.001372
0.001370
0.001346
0.001349
0.001377
0.001375
0.001404
0.001388
0.001461
0.001446
0.001433
0.001409
0.001401
0.001412
0.001396
0.001375
0.001391
0.001351
0.001404
0.001385
0.001435
0.001433
0.001433
0.001404
0.001372
0.001364
0.001354
0.001383
0.001375
0.001375
0.001354
0.001338
0.001364
0.001375
0.001396
0.001443
0.001469
0.001446
0.001438
0.001377
0.001396
0.001372
0.001356
0.001375
0.001401
0.001396
0.001398
0.001372
0.001427
0.001451
0.001446
0.001406
0.001396
0.001412
0.001354
0.001346
0.001364
0.001385
0.001398
0.001375
0.001406
0.001419
0.001393
0.001427
0.001412
0.001430
0.001406
0.001370
0.001356
0.001354
0.001377
0.001356
0.001414
0.001451
0.001414
0.001422
0.001425
0.001419
0.001414
0.001391
0.001380
0.001362
0.001262
0.001188
0.001107
0.001002
0.000811
0.000430
-0.000055
-0.000869
-0.002209
-0.004093
-0.006150
-0.008087
-0.009942
-0.011857
-0.013552
-0.015100
-0.016680
-0.017816
-0.018758
-0.019576
-0.020379
-0.021137
-0.021452
-0.021751
-0.022153
-0.022208
-0.021699
-0.021384
-0.021434
-0.021250
-0.020757
-0.020403
-0.020177
-0.019944
-0.019980
-0.020172
-0.020109
-0.019608
-0.018865
-0.018632
-0.018511
-0.017921
-0.017469
-0.017380
-0.017029
-0.016785
-0.016897
-0.017191
-0.017097
-0.016732
-0.016407
-0.016115
-0.015782
-0.015431
-0.015061
-0.014688
-0.014158
-0.013828
-0.013817
-0.013759
-0.013620
-0.013581
-0.013345
-0.013130
-0.012993
-0.012691
-0.012269
-0.012014
-0.011920
-0.011765
-0.011398
-0.010907
-0.010514
-0.010283
-0.010060
-0.009894
-0.010015
-0.010283
-0.010367
-0.010165
-0.010033
-0.010133
-0.009852
-0.009522
-0.009574
-0.009608
-0.009540
-0.009650
-0.009656
-0.009113
-0.008611
-0.008596
-0.008659
-0.008596
-0.008575
-0.008714
-0.008598
-0.008291
-0.008121
-0.008087
-0.008136
-0.008239
-0.008213
-0.008276
-0.008249
-0.007995
-0.007727
-0.007580
-0.007431
-0.007069
-0.006909
-0.006956
-0.006998
-0.007187
-0.007481
-0.007478
-0.007045
-0.006754
-0.006759
-0.006846
-0.006822
-0.006819
-0.006746
-0.006507
-0.006407
-0.006615
-0.006683
-0.006365
-0.006066
-0.006003
-0.006011
-0.006019
-0.006108
-0.006195
-0.006242
-0.006218
-0.006103
-0.005993
-0.005995
-0.006001
-0.005854
-0.005597
-0.005363
-0.005282
-0.005229
-0.005208
-0.005090
-0.004838
-0.004623
-0.004636
-0.004747
-0.004618
-0.004568
-0.004854
-0.005085
-0.005208
-0.005442
-0.005578
-0.005460
-0.005193
-0.004922
-0.004726
-0.004442
-0.004067
-0.004101
-0.004471
-0.004602
-0.004581
-0.004660
-0.004699
-0.004521
-0.004282
-0.004403
-0.004537
-0.004429
-0.004272
-0.004148
-0.004028
-0.003700
-0.003555
-0.003631
-0.003721
-0.003784
-0.003957
-0.003917
-0.003663
-0.003694
-0.003868
-0.004064
-0.004093
-0.004017
-0.003883
-0.003873
-0.004091
-0.004159
-0.003962
-0.003521
-0.003282
-0.003293
-0.003317
-0.003301
-0.003185
-0.003159
-0.003222
-0.003233
-0.003178
-0.003248
-0.003267
-0.003206
-0.003225
-0.003170
-0.003015
-0.003044
-0.002962
-0.002742
-0.002658
-0.002752
-0.002703
-0.002616
-0.002558
-0.002645
-0.002648
-0.002697
-0.002829
-0.002850
-0.002721
-0.002655
-0.002590
-0.002419
-0.002291
-0.002207
-0.002138
-0.002083
-0.002149
-0.002188
-0.002154
-0.002157
-0.002257
-0.002133
-0.001968
-0.001915
-0.001950
-0.002020
-0.002167
-0.002359
-0.002472
-0.002485
-0.002398
-0.002356
-0.002346
-0.002325
-0.002259
-0.002317
-0.002477
-0.002456
-0.002335
-0.002348
-0.002493
-0.002369
-0.002102
-0.001892
-0.001963
-0.002091
-0.002062
-0.001978
-0.002013
-0.002065
-0.002060
-0.002055
-0.002215
-0.002561
-0.002784
-0.002729
-0.002545
-0.002333
-0.002136
-0.001984
-0.001981
-0.002010
-0.001905
-0.001902
-0.002188
-0.002288
-0.002005
-0.001664
-0.001606
-0.001622
-0.001561
-0.001480
-0.001548
-0.001530
-0.001475
-0.001658
-0.001936
-0.001971
-0.001732
-0.001488
-0.001527
-0.001582
-0.001490
-0.001467
-0.001627
-0.001619
-0.001456
-0.001388
-0.001351
-0.001286
-0.001244
-0.001233
-0.001320
-0.001464
-0.001427
-0.001336
-0.001391
-0.001469
-0.001404
-0.001349
-0.001262
-0.001228
-0.001267
-0.001388
-0.001548
-0.001561
-0.001336
-0.000987
-0.001034
-0.001346
-0.001593
-0.001677
-0.001564
-0.001504
-0.001417
-0.001225
-0.001181
-0.001136
-0.001097
-0.001126
-0.001260
-0.001223
-0.001099
-0.001141
-0.001102
-0.000897
-0.000703
-0.000593
-0.000609
-0.000653
-0.000761
-0.000929
-0.001000
-0.000824
-0.000693
-0.000706
-0.000722
-0.000698
-0.000638
-0.000572
-0.000501
-0.000567
-0.000714
-0.000926
-0.001000
-0.000921
-0.000827
-0.000756
-0.000874
-0.001008
-0.001057
-0.000953
-0.000900
-0.000858
-0.000758
-0.000606
-0.000522
-0.000546
-0.000596
-0.000709
-0.000790
-0.000706
-0.000585
-0.000572
-0.000632
-0.000611
-0.000559
-0.000470
-0.000420
-0.000446
-0.000567
-0.000769
-0.000832
-0.000640
-0.000572
-0.000630
-0.000627
-0.000569
-0.000546
-0.000478
-0.000480
-0.000604
-0.000674
-0.000632
-0.000659
-0.000680
-0.000611
-0.000522
-0.000556
-0.000598
-0.000433
-0.000354
-0.000415
-0.000470
-0.000491
-0.000562
-0.000585
-0.000480
-0.000320
-0.000260
-0.000268
-0.000184
-0.000165
-0.000197
-0.000265
-0.000291
-0.000346
-0.000412
-0.000402
-0.000425
-0.000572
-0.000737
-0.000724
-0.000653
-0.000653
-0.000525
-0.000488
-0.000375
-0.000247
-0.000158
-0.000207
-0.000278
-0.000328
-0.000249
-0.000189
-0.000302
-0.000446
-0.000509
-0.000467
-0.000294
-0.000158
-0.000071
-0.000113
-0.000110
-0.000102
-0.000118
-0.000163
-0.000220
-0.000265
-0.000289
-0.000328
-0.000289
-0.000173
-0.000163
-0.000234
-0.000152
-0.000053
0.000073
0.000010
-0.000095
-0.000055
-0.000042
-0.000034
-0.000144
-0.000249
-0.000218
-0.000213
-0.000097
0.000037
0.000042
-0.000016
-0.000102
-0.000163
-0.000076
0.000052
0.000042
0.000092
0.000115
0.000073
0.000142
0.000210
0.000147
0.000136
0.000184
0.000165
0.000160
0.000178
0.000181
0.000121
0.000037
-0.000055
-0.000110
-0.000066
0.000018
0.000021
0.000013
-0.000081
-0.000123
-0.000121
-0.000071
0.000029
0.000084
0.000084
0.000063
0.000016
-0.000042
-0.000163
-0.000176
-0.000039
-0.000039
-0.000131
-0.000026
0.000178
0.000283
0.000294
0.000344
0.000365
0.000317
0.000304
0.000396
0.000372
0.000254
0.000170
0.000097
-0.000005
-0.000055
-0.000021
0.000039
-0.000037
-0.000066
0.000092
0.000199
0.000212
0.000249
0.000247
0.000205
0.000178
0.000113
0.000021
-0.000042
0.000042
0.000123
0.000113
0.000066
0.000066
0.000176
0.000178
0.000199
0.000294
0.000312
0.000344
0.000420
0.000417
0.000275
0.000136
0.000173
0.000207
0.000094
0.000039
0.000144
0.000207
0.000231
0.000365
0.000386
0.000249
0.000199
0.000252
0.000336
0.000362
0.000362
0.000357
0.000341
0.000367
0.000325
0.000273
0.000257
0.000236
0.000231
0.000260
0.000354
0.000446
0.000422
0.000294
0.000244
0.000194
0.000249
0.000270
0.000299
0.000226
0.000194
0.000155
0.000202
0.000247
0.000299
0.000344
0.000388
0.000462
0.000567
0.000577
0.000664
0.000669
0.000540
0.000459
0.000530
0.000559
0.000533
0.000493
0.000540
0.000485
0.000451
0.000404
0.000328
0.000244
0.000260
0.000312
0.000346
0.000359
0.000514
0.000666
0.000669
0.000569
0.000535
0.000535
0.000477
0.000302
0.000252
0.000325
0.000367
0.000346
0.000354
0.000401
0.000449
0.000441
0.000504
0.000535
0.000527
0.000580
0.000656
0.000669
0.000677
0.000643
0.000540
0.000543
0.000588
0.000472
0.000291
0.000197
0.000142
0.000207
0.000428
0.000606
0.000721
0.000758
0.000706
0.000603
0.000501
0.000401
0.000304
0.000270
0.000362
0.000446
0.000491
0.000519
0.000514
0.000519
0.000422
0.000328
0.000378
0.000556
0.000703
0.000666
0.000514
0.000464
0.000493
0.000519
0.000517
0.000585
0.000561
0.000462
0.000522
0.000569
0.000480
0.000401
0.000464
0.000548
0.000572
0.000514
0.000435
0.000333
0.000401
0.000533
0.000619
0.000679
0.000719
0.000669
0.000677
0.000672
0.000703
0.000687
0.000727
0.000774
0.000750
0.000632
0.000559
0.000496
0.000449
0.000393
0.000459
0.000564
0.000648
0.000619
0.000546
0.000543
0.000498
0.000517
0.000611
0.000669
0.000617
0.000496
0.000433
0.000470
0.000312
0.000107
0.000073
0.000199
0.000320
0.000435
0.000564
0.000622
0.000632
0.000640
0.000719
0.000766
0.000666
0.000577
0.000525
0.000491
0.000454
0.000407
0.000433
0.000365
0.000354
0.000462
0.000596
0.000648
0.000677
0.000651
0.000590
0.000664
0.000706
0.000721
0.000645
0.000643
0.000674
0.000651
0.000598
0.000514
0.000414
0.000417
0.000477
0.000585
0.000624
0.000700
0.000700
0.000656
0.000601
0.000593
0.000708
0.000832
0.000840
0.000813
0.000758
0.000758
0.000721
0.000700
0.000672
0.000737
0.000758
0.000774
0.000819
0.000771
0.000763
0.000685
0.000690
0.000779
0.000769
0.000714
0.000666
0.000624
0.000645
0.000645
0.000737
0.000803
0.000758
0.000784
0.000819
0.000845
0.000834
0.000798
0.000800
0.000758
0.000763
0.000719
0.000666
0.000590
0.000462
0.000354
0.000378
0.000561
0.000753
0.000798
0.000803
0.000821
0.000832
0.000803
0.000756
0.000669
0.000569
0.000519
0.000546
0.000624
0.000643
0.000575
0.000580
0.000619
0.000695
0.000787
0.000779
0.000669
0.000617
0.000700
0.000826
0.000816
0.000706
0.000732
0.000769
0.000735
0.000729
0.000740
0.000714
0.000664
0.000769
0.000900
0.000952
0.000879
0.000887
0.000902
0.000887
0.000847
0.000858
0.000837
0.000834
0.000829
0.000829
0.000787
0.000769
0.000651
0.000643
0.000735
0.000700
0.000661
0.000716
0.000790
0.000834
0.000795
0.000816
0.000795
0.000829
0.000900
0.000887
0.000792
0.000748
0.000745
0.000737
0.000763
0.000787
0.000779
0.000756
0.000792
0.000845
0.000824
0.000853
0.000861
0.000861
0.000853
0.000879
0.000902
0.000829
0.000782
0.000769
0.000782
0.000784
0.000753
0.000753
0.000679
0.000703
0.000735
0.000800
0.000842
0.000790
0.000779
0.000816
0.000840
0.000774
0.000761
0.000787
0.000805
0.000821
0.000866
0.000905
0.000921
0.000887
0.000811
0.000716
0.000669
0.000790
0.000908
0.000976
0.000965
0.000973
0.000929
0.000913
0.000874
0.000824
0.000805
0.000868
0.000871
0.000847
0.000866
0.000782
0.000706
0.000685
0.000729
0.000729
0.000648
0.000593
0.000538
0.000585
0.000690
0.000824
0.000863
0.000795
0.000763
0.000829
0.000921
0.000981
0.000913
0.000782
0.000714
0.000716
0.000645
0.000569
0.000590
0.000648
0.000724
0.000829
0.000871
0.000855
0.000847
0.000834
0.000813
0.000908
0.000963
0.000942
0.000944
0.000895
0.000819
0.000787
0.000853
0.000916
0.000887
0.000876
0.000934
0.000879
0.000813
0.000866
0.000871
0.000882
0.000803
0.000774
0.000882
0.000965
0.000855
0.000737
0.000782
0.000803
0.000805
0.000897
0.001007
0.001023
0.000960
0.001023
0.001068
0.000979
0.000826
0.000840
0.000892
0.000892
0.000916
0.000908
0.000916
0.000900
0.000887
0.000910
0.000879
0.000803
0.000669
0.000653
0.000682
0.000735
0.000858
0.001000
0.001057
0.001026
0.000963
0.001028
0.001112
0.001034
0.000921
0.000879
0.000845
0.000850
0.000811
0.000756
0.000729
0.000784
0.000889
0.001002
0.001013
0.000986
0.000868
0.000829
0.000800
0.000753
0.000795
0.000897
0.000910
0.000874
0.000868
0.000952
0.000984
0.000926
0.000811
0.000774
0.000858
0.000944
0.000900
0.000832
0.000800
0.000737
0.000758
0.000889
0.000926
0.000900
0.000892
0.000861
0.000824
0.000829
0.000882
0.000918
0.000902
0.000902
0.000926
0.000944
0.000926
0.000879
0.000769
0.000735
0.000847
0.000868
0.000884
0.000902
0.000950
0.000942
0.000916
0.000976
0.000968
0.000937
0.000787
0.000779
0.000763
0.000763
0.000753
0.000790
0.000803
0.000756
0.000737
0.000716
0.000695
0.000664
0.000627
0.000711
0.000832
0.000887
0.000850
0.000868
0.000879
0.000829
0.000763
0.000756
0.000777
0.000874
0.000931
0.000918
0.000916
0.000908
0.000900
0.000916
0.000944
0.000947
0.000902
0.000986
0.001073
0.001063
0.000997
0.000976
0.001018
0.001005
0.000923
0.000926
0.000981
0.001018
0.001013
0.001002
0.001028
0.000973
0.000897
0.000900
0.000908
0.000923
0.000931
0.000965
0.000929
0.000874
0.000819
0.000874
0.000895
0.000850
0.000819
0.000861
0.000902
0.000879
0.000855
0.000845
0.000855
0.000892
0.000884
0.000784
0.000784
0.000866
0.000876
0.000950
0.000937
0.000892
0.000868
0.000855
0.000884
0.000973
0.001000
0.000955
0.000994
0.001002
0.001010
0.001028
0.000979
0.000950
0.000895
0.000902
0.000944
0.000934
0.000842
0.000729
0.000672
0.000640
0.000695
0.000850
0.000918
0.000887
0.000845
0.000863
0.000905
0.000916
0.000968
0.001000
0.000965
0.000997
0.000992
0.001060
0.001078
0.001039
0.000918
0.000955
0.000989
0.001055
0.001078
0.001070
0.001007
0.000923
0.000866
0.000900
0.000950
0.000942
0.000952
0.001010
0.001005
0.000968
0.000968
0.001028
0.001013
0.000960
0.000921
0.000937
0.000947
0.000926
0.000868
0.000897
0.001005
0.001112
0.001144
0.001120
0.001086
0.001034
0.000992
0.001013
0.001034
0.001007
0.000981
0.000968
0.000955
0.000994
0.001023
0.001005
0.000997
0.001047
0.001057
0.001042
0.001042
0.001000
0.000900
0.000861
0.000866
0.000790
0.000703
0.000766
0.000868
0.000923
0.000952
0.001023
0.001052
0.001005
0.001005
0.001060
0.001057
0.001097
0.001105
0.001044
0.000997
0.000939
0.000866
0.000853
0.000882
0.000905
0.000876
0.000826
0.000963
0.001052
0.000976
0.000960
0.001015
0.001042
0.001055
0.001028
0.001002
0.000973
0.000879
0.000845
0.000876
0.000866
0.000889
0.000960
0.000976
0.000937
0.000965
0.001018
0.001042
0.001036
0.000944
0.000876
0.000861
0.000889
0.000963
0.000986
0.001026
0.001063
0.001076
0.001076
0.001031
0.000884
0.000800
0.000821
0.000892
0.000965
0.001007
0.000986
0.000858
0.000842
0.000811
0.000819
0.000819
0.000853
0.000902
0.000929
0.000884
0.000790
0.000813
0.000960
0.000994
0.000992
0.000989
0.001007
0.001002
0.000979
0.000973
0.000971
0.000942
0.000913
0.000863
0.000900
0.000958
0.000931
0.000913
0.000992
0.001052
0.001047
0.001057
0.001063
0.001042
0.001000
0.000950
0.000926
0.000944
0.000965
0.000989
0.001039
0.001015
0.000971
0.000968
0.001000
0.001021
0.001049
0.001036
0.001013
0.000958
0.000916
0.000887
0.000955
0.001026
0.001060
0.001081
0.001049
0.000976
0.000908
0.000926
0.000976
0.000986
0.001042
0.001123
0.001099
0.001060
0.001057
0.001057
0.001013
0.000902
0.000939
0.000950
0.000942
0.000921
0.000895
0.000850
0.000887
0.000923
0.000986
0.001018
0.001049
0.001021
0.000918
0.000805
0.000784
0.000826
0.000929
0.001023
0.001005
0.000960
0.000905
0.000847
0.000882
0.000939
0.000971
0.000994
0.001068
0.001131
0.001120
0.001081
0.001028
0.000960
0.000892
0.000918
0.001000
0.001047
0.001065
0.000992
0.000934
0.000952
0.001007
0.001052
0.001002
0.001002
0.001013
0.001007
0.001026
0.001055
0.001026
0.000994
0.000947
0.000934
0.000931
0.000939
0.000918
0.000918
0.000989
0.000979
0.000923
0.000916
0.000965
0.000934
0.000950
0.000971
0.001010
0.001036
0.001084
0.001126
0.001076
0.000973
0.000981
0.000981
0.000884
0.000850
0.000908
0.000923
0.000952
0.001031
0.001023
0.001036
0.001036
0.001023
0.000973
0.000973
0.000923
0.000808
0.000795
0.000895
0.000963
0.001000
0.001023
0.001026
0.000984
0.000973
0.000994
0.000963
0.000923
0.000923
0.000984
0.001002
0.001031
0.001049
0.001000
0.001005
0.001034
0.001015
0.001028
0.001000
0.001023
0.001049
0.001036
0.001042
0.001031
0.000968
0.001018
0.001042
0.001036
0.001036
0.001028
0.001028
0.000992
0.000918
0.000934
0.000989
0.001039
0.001057
0.001078
0.001063
0.000981
0.000905
0.000955
0.001013
0.001049
0.001070
0.001065
0.001097
0.001086
0.001052
0.001049
0.001049
0.000958
0.000921
0.000968
0.000997
0.000968
0.000944
0.000979
0.001000
0.001028
0.001057
0.001057
0.001042
0.001021
0.000994
0.001026
0.001005
0.000934
0.000971
0.001010
0.001005
0.000973
0.000944
0.000908
0.000937
0.000958
0.000947
0.000944
0.000989
0.001026
0.000981
0.000989
0.001063
0.001021
0.000971
0.001002
0.001073
0.001089
0.001086
0.001102
0.001112
0.001105
0.001115
0.001115
0.001102
0.001094
0.001128
0.001178
0.001175
0.001149
0.001084
0.001039
0.001052
0.001118
0.001112
0.001047
0.000916
0.000748
0.000742
0.000845
0.000905
0.000897
0.000960
0.001036
0.001107
0.001152
0.001141
0.001097
0.001026
0.001031
0.001000
0.001002
0.001013
0.001028
0.000997
0.001000
0.000934
0.000973
0.000976
0.000997
0.000960
0.000895
0.000895
0.000897
0.000934
0.000939
0.000897
0.000853
0.000902
0.000952
0.000926
0.000929
0.001023
0.001068
0.001031
0.001099
0.001110
0.001126
0.001078
0.001115
0.001105
0.000992
0.000931
0.000973
0.001026
0.001049
0.001052
0.001018
0.000989
0.001013
0.001005
0.000973
0.000965
0.000937
0.000968
0.001070
0.001128
0.001123
0.001118
0.001110
0.001107
0.001052
0.001034
0.001021
0.001015
0.001026
0.001055
0.001065
0.001091
0.001081
0.001000
0.000937
0.000942
0.001007
0.001042
0.001078
0.001089
0.001094
0.001128
0.001107
0.001023
0.000986
0.001015
0.001026
0.001031
0.001078
0.001073
0.001102
0.001044
0.001063
0.001073
0.001065
0.001120
0.001126
0.001120
0.001084
0.001065
0.001094
0.001133
0.001089
0.001018
0.000971
0.000934
0.000918
0.000981
0.001049
0.001042
0.001021
0.001063
0.001089
0.001057
0.001042
0.001097
0.001112
0.001091
0.001084
0.001089
0.001065
0.001052
0.001000
0.000963
0.000984
0.000997
0.001047
0.001097
0.001094
0.001060
0.001026
0.001084
0.001128
0.001115
0.001073
0.001086
0.001078
0.001021
0.000947
0.000947
0.001007
0.001049
0.001081
0.001112
0.001191
0.001141
0.001078
0.001068
0.001099
0.001049
0.000994
0.000971
0.001015
0.001018
0.001076
0.001144
0.001078
0.000963
0.000955
0.001000
0.001021
0.000976
0.000968
0.000895
0.000934
0.001028
0.001076
0.001099
0.001120
0.001094
0.001115
0.001139
0.001086
0.001063
0.001042
0.001081
0.001112
0.001081
0.001049
0.001052
0.001026
0.001042
0.001021
0.001049
0.001086
0.000997
0.000997
0.000942
0.000960
0.000950
0.000942
0.001013
0.001018
0.001052
0.001112
0.001157
0.001165
0.001118
0.001144
0.001173
0.001091
0.000976
0.000923
0.000965
0.000976
0.000965
0.001036
0.001126
0.001149
0.001099
0.001107
0.001070
0.001036
0.000992
0.001018
0.001089
0.001081
0.001068
0.001112
0.001175
0.001173
0.001049
0.000955
0.000981
0.000939
0.000834
0.000745
0.000808
0.000897
0.000934
0.001015
0.001133
0.001191
0.001175
0.001183
0.001215
0.001202
0.001133
0.001102
0.001149
0.001178
0.001123
0.001128
0.001094
0.001070
0.001034
0.001010
0.001076
0.001091
0.001076
0.001039
0.001086
0.001118
0.001084
0.001112
0.001147
0.001126
0.001034
0.001042
0.001089
0.001099
0.001023
0.001000
0.001036
0.001034
0.001010
0.001055
0.001126
0.001175
0.001147
0.001199
0.001246
0.001254
0.001194
0.001170
0.001199
0.001168
0.001144
0.001152
0.001183
0.001110
0.001052
0.001031
0.001039
0.001042
0.001068
0.001084
0.001097
0.001118
0.001110
0.001144
0.001128
0.001055
0.000984
0.000981
0.001049
0.001070
0.001036
0.000929
0.000947
0.001049
0.001136
0.001173
0.001202
0.001212
0.001147
0.001202
0.001194
0.001165
0.001102
0.001115
0.001202
0.001170
0.001120
0.001112
0.001144
0.001162
0.001147
0.001212
0.001254
0.001283
0.001220
0.001215
0.001220
0.001188
0.001183
0.001188
0.001086
0.000997
0.000923
0.001023
0.001073
0.001107
0.001136
0.001183
0.001144
0.001118
0.001149
0.001154
0.001157
0.001186
0.001249
0.001236
0.001207
0.001102
0.001073
0.001015
0.000958
0.000960
0.000989
0.000994
0.001036
0.001078
0.001107
0.001089
0.001063
0.001133
0.001162
0.001160
0.001105
0.001099
0.001031
0.001000
0.001042
0.001023
0.001055
0.001076
0.001099
0.001052
0.001052
0.001073
0.001131
0.001128
0.001123
0.001178
0.001183
0.001126
0.001084
0.001126
0.001031
0.000994
0.001047
0.001086
0.001089
0.001102
0.001147
0.001131
0.001073
0.001097
0.001128
0.001131
0.001097
0.001023
0.001010
0.001034
0.001057
0.001070
0.001120
0.001131
0.001089
0.001073
0.001131
0.001107
0.001110
0.001165
0.001157
0.001097
0.001055
0.001076
0.001094
0.001015
0.001031
0.001070
0.001055
0.001131
0.001157
0.001089
0.001007
0.001039
0.001102
0.001188
0.001168
0.001196
0.001246
0.001244
0.001233
0.001204
0.001199
0.001191
0.001173
0.001220
0.001254
0.001249
0.001238
0.001233
0.001162
0.001120
0.001112
0.001186
0.001186
0.001217
0.001175
0.001168
0.001152
0.001141
0.001173
0.001199
0.001196
0.001168
0.001115
0.001139
0.001094
0.001078
0.001091
0.001141
0.001188
0.001152
0.001147
0.001136
0.001118
0.001060
0.001042
0.001105
0.001181
0.001207
0.001238
0.001286
0.001223
0.001154
0.001089
0.001123
0.001105
0.001047
0.001015
0.001015
0.001028
0.000984
0.000997
0.001078
0.001170
0.001183
0.001173
0.001068
0.001018
0.001002
0.001042
0.001068
0.001078
0.001107
0.001144
0.001196
0.001233
0.001186
0.001120
0.001084
0.001133
0.001152
0.001118
0.001147
0.001144
0.001186
0.001128
0.001154
0.001141
0.001131
0.001147
0.001078
0.001097
0.001120
0.001147
0.001194
0.001272
0.001296
0.001236
0.001199
0.001215
0.001175
0.001086
0.001000
0.000960
0.001039
0.001086
0.001123
0.001165
0.001162
0.001170
0.001170
0.001147
0.001191
0.001144
0.001112
0.001165
0.001204
0.001170
0.001170
0.001147
0.001141
0.001133
0.001128
0.001173
0.001157
0.001131
0.001157
0.001186
0.001202
0.001196
0.001178
0.001157
0.001209
0.001178
0.001097
0.001118
0.001094
0.001094
0.001123
0.001147
0.001118
0.001005
0.000973
0.000986
0.001044
0.001112
0.001152
0.001170
0.001123
0.001097
0.001039
0.001007
0.001063
0.001078
0.001173
0.001280
0.001262
0.001204
0.001188
0.001162
0.001123
0.001086
0.001094
0.001112
0.001097
0.001063
0.001115
0.001136
0.001139
0.001123
0.001136
0.001144
0.001118
0.001175
0.001136
0.001078
0.001076
0.001118
0.001178
0.001204
0.001220
0.001188
0.001141
0.001112
0.001131
0.001076
0.001068
0.001131
0.001170
0.001149
0.001144
0.001144
0.001131
0.001028
0.001013
0.001068
0.001068
0.001047
0.001126
0.001147
0.001165
0.001178
0.001272
0.001286
0.001293
0.001288
0.001228
0.001202
0.001168
0.001175
0.001186
0.001141
0.001120
0.001102
0.001097
0.001068
0.001063
0.001060
0.001128
0.001152
0.001149
0.001126
0.001152
0.001070
0.001036
0.001023
0.001094
0.001170
0.001230
0.001272
0.001244
0.001154
0.001144
0.001160
0.001178
0.001241
0.001230
0.001162
0.001217
0.001220
0.001196
0.001154
0.001118
0.001099
0.001091
0.001089
0.001102
0.001133
0.001112
0.001112
0.001178
0.001202
0.001175
0.001081
0.001018
0.001036
0.001133
0.001191
0.001225
0.001220
0.001207
0.001170
0.001202
0.001225
0.001228
0.001202
0.001225
0.001183
0.001123
0.001110
0.001105
0.001154
0.001168
0.001131
0.001120
0.001120
0.001178
0.001178
0.001168
0.001162
0.001099
0.001068
0.001112
0.001162
0.001165
0.001131
0.001152
0.001178
0.001181
0.001183
0.001181
0.001186
0.001186
0.001133
0.001204
0.001188
0.001157
0.001097
0.001133
0.001170
0.001209
0.001223
0.001249
0.001291
0.001288
0.001286
0.001265
0.001212
0.001168
0.001152
0.001202
0.001199
0.001217
0.001196
0.001136
0.001081
0.001057
0.001068
0.001076
0.001076
0.001120
0.001107
0.001107
0.001115
0.001173
0.001194
0.001191
0.001196
0.001212
0.001249
0.001196
0.001118
0.001089
0.001070
0.001102
0.001133
0.001110
0.001115
0.001107
0.001144
0.001123
0.001110
0.001162
0.001175
0.001157
0.001194
0.001233
0.001154
0.001139
0.001144
0.001168
0.001168
0.001149
0.001133
0.001162
0.001154
0.001188
0.001147
0.001147
0.001196
0.001188
0.001186
0.001225
0.001191
0.001157
0.001107
0.001120
0.001136
0.001126
0.001128
0.001191
0.001244
0.001230
0.001178
0.001139
0.001110
0.001118
0.001091
0.001112
0.001118
0.001084
0.001052
0.001078
0.001141
0.001225
0.001196
0.001149
0.001112
0.001147
0.001173
0.001244
0.001220
0.001181
0.001149
0.001152
0.001144
0.001144
0.001118
0.001149
0.001144
0.001102
0.001112
0.001188
0.001209
0.001217
0.001238
0.001215
0.001230
0.001244
0.001238
0.001228
0.001154
0.001173
0.001178
0.001168
0.001233
0.001207
0.001120
0.001118
0.001212
0.001215
0.001199
0.001223
0.001186
0.001194
0.001160
0.001144
0.001131
0.001112
0.001099
0.001097
0.001076
0.001078
0.001073
0.001173
0.001207
0.001173
0.001133
0.001091
0.001165
0.001204
0.001241
0.001233
0.001241
0.001207
0.001181
0.001160
0.001110
0.001110
0.001162
0.001202
0.001230
0.001280
0.001241
0.001215
0.001209
0.001168
0.001170
0.001170
0.001154
0.001175
0.001133
0.001089
0.001110
0.001118
0.001081
0.001094
0.001097
0.001133
0.001188
0.001215
0.001220
0.001220
0.001209
0.001230
0.001265
0.001223
0.001126
0.001057
0.001052
0.001131
0.001128
0.001157
0.001168
0.001133
0.001123
0.001152
0.001160
0.001107
0.001118
0.001123
0.001168
0.001204
0.001168
0.001136
0.001055
0.001097
0.001136
0.001207
0.001241
0.001236
0.001207
0.001178
0.001157
0.001191
0.001173
0.001157
0.001199
0.001157
0.001149
0.001162
0.001168
0.001183
0.001202
0.001244
0.001259
0.001299
0.001291
0.001307
0.001291
0.001262
0.001212
0.001170
0.001152
0.001165
0.001139
0.001123
0.001128
0.001168
0.001194
0.001170
0.001173
0.001191
0.001175
0.001207
0.001199
0.001123
0.001068
0.001099
0.001126
0.001194
0.001199
0.001223
0.001194
0.001168
0.001170
0.001168
0.001147
0.001099
0.001073
0.001128
0.001209
0.001236
0.001217
0.001244
0.001199
0.001178
0.001123
0.001152
0.001141
0.001118
0.001123
0.001154
0.001194
0.001183
0.001238
0.001225
0.001199
0.001194
0.001160
0.001149
0.001194
0.001168
0.001173
0.001183
0.001225
0.001241
0.001265
0.001267
0.001254
0.001199
0.001209
0.001217
0.001178
0.001154
0.001133
0.001144
0.001147
0.001191
0.001162
0.001128
0.001112
0.001084
0.001110
0.001149
0.001183
0.001160
0.001128
0.001168
0.001183
0.001183
0.001147
0.001196
0.001099
0.001065
0.001073
0.001144
0.001168
0.001202
0.001196
0.001223
0.001183
0.001188
0.001204
0.001188
0.001188
0.001188
0.001175
0.001199
0.001275
0.001265
0.001246
0.001217
0.001147
0.001157
0.001181
0.001212
0.001230
0.001186
0.001178
0.001181
0.001186
0.001217
0.001186
0.001199
0.001175
0.001220
0.001212
0.001238
0.001199
0.001186
0.001091
0.001057
0.001055
0.001086
0.001115
0.001191
0.001230
0.001236
0.001223
0.001236
0.001251
0.001202
0.001136
0.001183
0.001217
0.001251
0.001225
0.001186
0.001170
0.001131
0.001131
0.001157
0.001168
0.001199
0.001194
0.001170
0.001175
0.001202
0.001120
0.001097
0.001131
0.001147
0.001173
0.001202
0.001254
0.001186
0.001110
0.001089
0.001123
0.001168
0.001212
0.001280
0.001236
0.001178
0.001157
0.001170
0.001212
0.001217
0.001230
0.001233
0.001230
0.001170
0.001165
0.001207
0.001223
0.001209
0.001220
0.001236
0.001223
0.001199
0.001181
0.001183
0.001199
0.001207
0.001236
0.001225
0.001228
0.001236
0.001183
0.001170
0.001188
0.001241
0.001275
0.001312
0.001317
0.001317
0.001257
0.001265
0.001270
0.001236
0.001186
0.001186
0.001178
0.001139
0.001173
0.001178
0.001144
0.001136
0.001131
0.001149
0.001126
0.001181
0.001204
0.001196
0.001272
0.001249
0.001207
0.001246
0.001270
0.001233
0.001233
0.001238
0.001283
0.001299
0.001275
0.001280
0.001230
0.001204
0.001217
0.001236
0.001238
0.001188
0.001186
0.001223
0.001270
0.001236
0.001212
0.001241
0.001238
0.001173
0.001139
0.001199
0.001233
0.001225
0.001209
0.001233
0.001241
0.001215
0.001202
0.001228
0.001183
0.001120
0.001089
0.001147
0.001168
0.001126
0.001105
0.001165
0.001230
0.001259
0.001223
0.001254
0.001262
0.001225
0.001286
0.001330
0.001288
0.001244
0.001228
0.001207
0.001275
0.001262
0.001249
0.001238
0.001207
0.001202
0.001170
0.001204
0.001215
0.001181
0.001154
0.001199
0.001202
0.001196
0.001209
0.001238
0.001267
0.001202
0.001170
0.001170
0.001194
0.001217
0.001223
0.001228
0.001251
0.001278
0.001275
0.001280
0.001259
0.001236
0.001220
0.001238
0.001244
0.001212
0.001202
0.001157
0.001162
0.001183
0.001196
0.001183
0.001188
0.001160
0.001149
0.001126
0.001168
0.001207
0.001238
0.001280
0.001312
0.001296
0.001254
0.001215
0.001228
0.001225
0.001215
0.001251
0.001270
0.001225
0.001212
0.001215
0.001286
0.001288
0.001251
0.001333
0.001299
0.001236
0.001204
0.001204
0.001199
0.001199
0.001228
0.001170
0.001160
0.001120
0.001133
0.001144
0.001168
0.001139
0.001131
0.001196
0.001272
0.001317
0.001283
0.001220
0.001238
0.001249
0.001217
0.001223
0.001199
0.001188
0.001194
0.001181
0.001191
0.001181
0.001162
0.001209
0.001233
0.001230
0.001157
0.001120
0.001181
0.001249
0.001228
0.001199
0.001228
0.001199
0.001144
0.001181
0.001196
0.001225
0.001209
0.001186
0.001215
0.001244
0.001212
0.001181
0.001162
0.001165
0.001126
0.001107
0.001118
0.001178
0.001139
0.001141
0.001194
0.001220
0.001191
0.001217
0.001212
0.001181
0.001170
0.001194
0.001207
0.001186
0.001191
0.001168
0.001147
0.001147
0.001139
0.001178
0.001199
0.001244
0.001225
0.001217
0.001238
0.001233
0.001207
0.001196
0.001238
0.001236
0.001207
0.001215
0.001246
0.001267
0.001283
0.001309
0.001288
0.001307
0.001286
0.001265
0.001244
0.001220
0.001173
0.001204
0.001280
0.001278
0.001249
0.001257
0.001259
0.001230
0.001191
0.001204
0.001199
0.001228
0.001236
0.001262
0.001278
0.001251
0.001228
0.001209
0.001238
0.001278
0.001267
0.001278
0.001278
0.001275
0.001212
0.001220
0.001241
0.001204
0.001199
0.001254
0.001272
0.001275
0.001233
0.001270
0.001301
0.001291
0.001233
0.001251
0.001236
0.001244
0.001217
0.001162
0.001107
0.001073
0.001073
0.001160
0.001236
0.001246
0.001283
0.001312
0.001288
0.001238
0.001220
0.001223
0.001175
0.001230
0.001244
0.001270
0.001244
0.001254
0.001265
0.001249
0.001223
0.001212
0.001249
0.001254
0.001246
0.001254
0.001249
0.001251
0.001246
0.001236
0.001188
0.001199
0.001233
0.001238
0.001259
0.001286
0.001270
0.001223
0.001202
0.001217
0.001178
0.001207
0.001191
0.001220
0.001225
0.001257
0.001280
0.001262
0.001254
0.001259
0.001230
0.001220
0.001181
0.001194
0.001165
0.001170
0.001178
0.001191
0.001168
0.001107
0.001099
0.001131
0.001173
0.001178
0.001136
0.001123
0.001173
0.001220
0.001236
0.001241
0.001259
0.001212
0.001225
0.001230
0.001254
0.001267
0.001251
0.001286
0.001236
0.001207
0.001207
0.001181
0.001126
0.001118
0.001107
0.001139
0.001126
0.001076
0.001141
0.001165
0.001223
0.001275
0.001270
0.001265
0.001251
0.001215
0.001181
0.001186
0.001162
0.001199
0.001194
0.001175
0.001173
0.001196
0.001246
0.001286
0.001254
0.001272
0.001275
0.001228
0.001209
0.001244
0.001220
0.001230
0.001246
0.001314
0.001304
0.001333
0.001299
0.001280
0.001288
0.001272
0.001280
0.001291
0.001312
0.001296
0.001275
0.001267
0.001244
0.001293
0.001265
0.001301
0.001314
0.001286
0.001293
0.001307
0.001338
0.001341
0.001335
0.001354
0.001341
0.001299
0.001304
0.001228
0.001194
0.001196
0.001220
0.001270
0.001301
0.001354
0.001335
0.001320
0.001304
0.001296
0.001251
0.001249
0.001236
0.001220
0.001278
0.001233
0.001173
0.001170
0.001120
0.001084
0.001091
0.001217
0.001270
0.001262
0.001293
0.001338
0.001291
0.001257
0.001246
0.001249
0.001217
0.001215
0.001249
0.001257
0.001233
0.001178
0.001209
0.001233
0.001238
0.001265
0.001286
0.001291
0.001251
0.001275
0.001325
0.001322
0.001278
0.001272
0.001251
0.001217
0.001168
0.001204
0.001238
0.001207
0.001230
0.001259
0.001254
0.001254
0.001293
0.001296
0.001283
0.001275
0.001194
0.001220
0.001265
0.001267
0.001233
0.001215
0.001194
0.001173
0.001183
0.001230
0.001293
0.001299
0.001275
0.001320
0.001314
0.001328
0.001328
0.001278
0.001267
0.001296
0.001283
0.001272
0.001194
0.001220
0.001225
0.001257
0.001299
0.001275
0.001251
0.001202
0.001217
0.001241
0.001267
0.001312
0.001288
0.001293
0.001262
0.001236
0.001223
0.001191
0.001241
0.001304
0.001314
0.001314
0.001312
0.001275
0.001259
0.001233
0.001220
0.001244
0.001223
0.001220
0.001204
0.001233
0.001233
0.001244
0.001230
0.001196
0.001220
0.001265
0.001246
0.001257
0.001259
0.001223
0.001199
0.001183
0.001228
0.001272
0.001291
0.001280
0.001293
0.001257
0.001199
0.001233
0.001215
0.001133
0.001099
0.001191
0.001228
0.001249
0.001249
0.001275
0.001314
0.001296
0.001309
0.001278
0.001270
0.001259
0.001241
0.001238
0.001262
0.001280
0.001288
0.001296
0.001322
0.001304
0.001280
0.001278
0.001257
0.001220
0.001202
0.001199
0.001244
0.001296
0.001262
0.001238
0.001249
0.001254
0.001236
0.001183
0.001196
0.001202
0.001165
0.001191
0.001199
0.001202
0.001178
0.001199
0.001249
0.001267
0.001251
0.001244
0.001215
0.001139
0.001136
0.001196
0.001217
0.001209
0.001230
0.001280
0.001283
0.001299
0.001262
0.001267
0.001330
0.001309
0.001333
0.001314
0.001238
0.001188
0.001097
0.001115
0.001194
0.001244
0.001259
0.001335
0.001304
0.001233
0.001175
0.001212
0.001228
0.001175
0.001099
0.001097
0.001110
0.001157
0.001188
0.001209
0.001272
0.001283
0.001291
0.001283
0.001304
0.001283
0.001223
0.001259
0.001325
0.001362
0.001367
0.001346
0.001307
0.001246
0.001178
0.001154
0.001141
0.001157
0.001196
0.001228
0.001275
0.001288
0.001325
0.001338
0.001322
0.001304
0.001283
0.001249
0.001209
0.001160
0.001147
0.001183
0.001251
0.001254
0.001249
0.001241
0.001262
0.001233
0.001238
0.001265
0.001301
0.001307
0.001288
0.001301
0.001278
0.001230
0.001183
0.001233
0.001272
0.001283
0.001280
0.001244
0.001288
0.001296
0.001241
0.001202
0.001191
0.001215
0.001283
0.001307
0.001322
0.001304
0.001233
0.001244
0.001217
0.001233
0.001233
0.001217
0.001254
0.001304
0.001254
0.001265
0.001262
0.001270
0.001254
0.001275
0.001272
0.001249
0.001251
0.001278
0.001314
0.001309
0.001257
0.001251
0.001228
0.001283
0.001328
0.001286
0.001241
0.001299
0.001288
0.001291
0.001286
0.001291
0.001236
0.001220
0.001270
0.001293
0.001270
0.001254
0.001196
0.001110
0.000986
0.000973
0.001063
0.001123
0.001112
0.001107
0.001076
0.001068
0.001110
0.001157
0.001204
0.001202
0.001202
0.001283
0.001307
0.001288
0.001249
0.001233
0.001267
0.001272
0.001251
0.001288
0.001272
0.001270
0.001244
0.001207
0.001230
0.001225
0.001246
0.001262
0.001249
0.001246
0.001228
0.001249
0.001244
0.001217
0.001207
0.001259
0.001288
0.001304
0.001291
0.001317
0.001286
0.001249
0.001236
0.001236
0.001236
0.001265
0.001267
0.001272
0.001312
0.001317
0.001278
0.001259
0.001251
0.001225
0.001220
0.001291
0.001333
0.001272
0.001309
0.001296
0.001304
0.001283
0.001212
0.001165
0.001175
0.001199
0.001217
0.001233
0.001202
0.001173
0.001173
0.001259
0.001312
0.001314
0.001309
0.001317
0.001341
0.001314
0.001367
0.001375
0.001296
0.001317
0.001317
0.001304
0.001288
0.001233
0.001254
0.001270
0.001304
0.001272
0.001246
0.001254
0.001244
0.001225
0.001262
0.001293
0.001270
0.001238
0.001293
0.001330
0.001317
0.001275
0.001254
0.001246
0.001215
0.001196
0.001241
0.001249
0.001249
0.001228
0.001270
0.001267
0.001246
0.001267
0.001296
0.001299
0.001301
0.001307
0.001307
0.001291
0.001225
0.001217
0.001196
0.001178
0.001168
0.001173
0.001199
0.001220
0.001233
0.001230
0.001280
0.001296
0.001267
0.001288
0.001275
0.001293
0.001301
0.001333
0.001349
0.001293
0.001283
0.001259
0.001254
0.001265
0.001217
0.001249
0.001238
0.001230
0.001233
0.001246
0.001270
0.001286
0.001246
0.001259
0.001267
0.001335
0.001354
0.001330
0.001328
0.001307
0.001262
0.001291
0.001322
0.001288
0.001280
0.001275
0.001244
0.001194
0.001178
0.001220
0.001233
0.001233
0.001244
0.001283
0.001259
0.001236
0.001257
0.001270
0.001257
0.001233
0.001223
0.001246
0.001223
0.001228
0.001262
0.001241
0.001233
0.001272
0.001320
0.001406
0.001351
0.001317
0.001333
0.001312
0.001296
0.001228
0.001196
0.001144
0.001178
0.001246
0.001275
0.001286
0.001230
0.001162
0.001160
0.001149
0.001120
0.001154
0.001236
0.001288
0.001280
0.001267
0.001312
0.001278
0.001233
0.001230
0.001228
0.001244
0.001257
0.001320
0.001299
0.001288
0.001293
0.001301
0.001317
0.001312
0.001257
0.001204
0.001254
0.001317
0.001265
0.001278
0.001275
0.001267
0.001278
0.001338
0.001330
0.001293
0.001257
0.001262
0.001301
0.001267
0.001283
0.001270
0.001262
0.001278
0.001275
0.001262
0.001246
0.001238
0.001265
0.001317
0.001317
0.001283
0.001233
0.001220
0.001280
0.001317
0.001322
0.001322
0.001322
0.001309
0.001312
0.001314
0.001251
0.001246
0.001280
0.001338
0.001275
0.001275
0.001249
0.001265
0.001312
0.001291
0.001309
0.001299
0.001322
0.001309
0.001301
0.001288
0.001267
0.001278
0.001272
0.001278
0.001259
0.001286
0.001288
0.001272
0.001330
0.001322
0.001301
0.001333
0.001320
0.001351
0.001312
0.001262
0.001265
0.001233
0.001183
0.001230
0.001288
0.001291
0.001230
0.001178
0.001157
0.001162
0.001131
0.001154
0.001230
0.001291
0.001312
0.001307
0.001346
0.001343
0.001309
0.001309
0.001286
0.001262
0.001257
0.001299
0.001259
0.001220
0.001249
0.001259
0.001286
0.001267
0.001267
0.001304
0.001275
0.001312
0.001307
0.001317
0.001330
0.001314
0.001283
0.001286
0.001296
0.001233
0.001154
0.001118
0.001173
0.001236
0.001265
0.001259
0.001304
0.001322
0.001314
0.001335
0.001333
0.001328
0.001296
0.001249
0.001286
0.001312
0.001280
0.001296
0.001286
0.001244
0.001262
0.001307
0.001317
0.001307
0.001265
0.001262
0.001293
0.001299
0.001304
0.001328
0.001322
0.001335
0.001354
0.001356
0.001296
0.001291
0.001249
0.001262
0.001283
0.001320
0.001314
0.001293
0.001251
0.001262
0.001244
0.001228
0.001241
0.001246
0.001254
0.001251
0.001299
0.001351
0.001312
0.001338
0.001354
0.001309
0.001291
0.001267
0.001257
0.001257
0.001230
0.001233
0.001257
0.001246
0.001233
0.001220
0.001233
0.001299
0.001309
0.001301
0.001377
0.001425
0.001343
0.001377
0.001364
0.001341
0.001293
0.001286
0.001312
0.001301
0.001291
0.001304
0.001312
0.001296
0.001249
0.001246
0.001280
0.001293
0.001280
0.001254
0.001254
0.001265
0.001272
0.001296
0.001288
0.001283
0.001251
0.001246
0.001280
0.001244
0.001275
0.001275
0.001254
0.001272
0.001288
0.001280
0.001307
0.001293
0.001265
0.001278
0.001307
0.001283
0.001257
0.001249
0.001233
0.001241
0.001236
0.001233
0.001236
0.001244
0.001280
0.001307
0.001328
0.001314
0.001299
0.001296
0.001244
0.001160
0.001188
0.001225
0.001246
0.001194
0.001207
0.001233
0.001228
0.001259
0.001254
0.001299
0.001304
0.001291
0.001320
0.001354
0.001322
0.001307
0.001288
0.001299
0.001299
0.001296
0.001309
0.001328
0.001280
0.001270
0.001251
0.001299
0.001280
0.001314
0.001325
0.001286
0.001272
0.001291
0.001280
0.001259
0.001288
0.001335
0.001278
0.001251
0.001270
0.001312
0.001259
0.001228
0.001241
0.001257
0.001278
0.001283
0.001349
0.001314
0.001307
0.001330
0.001349
0.001317
0.001249
0.001244
0.001280
0.001288
0.001238
0.001275
0.001291
0.001272
0.001280
0.001330
0.001291
0.001267
0.001236
0.001249
0.001249
0.001280
0.001267
0.001275
0.001228
0.001183
0.001188
0.001233
0.001244
0.001267
0.001272
0.001275
0.001215
0.001262
0.001257
0.001257
0.001259
0.001320
0.001343
0.001322
0.001341
0.001346
0.001301
0.001304
0.001341
0.001333
0.001330
0.001341
0.001346
0.001335
0.001309
0.001307
0.001330
0.001288
0.001233
0.001291
0.001330
0.001328
0.001346
0.001343
0.001283
0.001249
0.001259
0.001246
0.001236
0.001257
0.001244
0.001280
0.001288
0.001291
0.001314
0.001280
0.001338
0.001312
0.001270
0.001265
0.001265
0.001280
0.001246
0.001288
0.001346
0.001288
0.001265
0.001293
0.001314
0.001270
0.001259
0.001283
0.001338
0.001328
0.001314
0.001364
0.001335
0.001320
0.001317
0.001333
0.001341
0.001312
0.001301
0.001299
0.001299
0.001304
0.001270
0.001328
0.001317
0.001280
0.001296
0.001354
0.001370
0.001338
0.001335
0.001346
0.001370
0.001370
0.001307
0.001296
0.001246
0.001215
0.001278
0.001317
0.001299
0.001325
0.001325
0.001330
0.001341
0.001356
0.001341
0.001286
0.001241
0.001286
0.001307
0.001343
0.001322
0.001320
0.001291
0.001283
0.001328
0.001309
0.001275
0.001304
0.001341
0.001320
0.001265
0.001225
0.001238
0.001238
0.001304
0.001317
0.001335
0.001335
0.001288
0.001280
0.001262
0.001283
0.001314
0.001314
0.001320
0.001307
0.001296
0.001275
0.001236
0.001236
0.001275
0.001309
0.001333
0.001317
0.001377
0.001362
0.001343
0.001328
0.001328
0.001325
0.001322
0.001309
0.001288
0.001265
0.001257
0.001217
0.001241
0.001293
0.001307
0.001333
0.001338
0.001377
0.001343
0.001328
0.001356
0.001338
0.001325
0.001309
0.001275
0.001301
0.001278
0.001275
0.001220
0.001191
0.001228
0.001259
0.001280
0.001307
0.001330
0.001288
0.001262
0.001286
0.001314
0.001304
0.001272
0.001299
0.001299
0.001291
0.001286
0.001270
0.001296
0.001286
0.001259
0.001246
0.001233
0.001262
0.001257
0.001309
0.001314
0.001328
0.001320
0.001299
0.001291
0.001223
0.001215
0.001238
0.001267
0.001301
0.001341
0.001314
0.001296
0.001312
0.001307
0.001275
0.001286
0.001301
0.001275
0.001275
0.001262
0.001238
0.001233
0.001217
0.001228
0.001267
0.001241
0.001278
0.001286
0.001314
0.001312
0.001293
0.001296
0.001291
0.001275
0.001335
0.001343
0.001349
0.001286
0.001296
0.001288
0.001270
0.001320
0.001301
0.001301
0.001317
0.001296
0.001307
0.001330
0.001375
0.001370
0.001354
0.001335
0.001328
0.001280
0.001257
0.001236
0.001257
0.001251
0.001278
0.001325
0.001320
0.001309
0.001314
0.001338
0.001301
0.001317
0.001299
0.001312
0.001338
0.001343
0.001349
0.001349
0.001312
0.001280
0.001314
0.001317
0.001301
0.001320
0.001320
0.001335
0.001333
0.001328
0.001341
0.001370
0.001396
0.001351
0.001383
0.001338
0.001351
0.001364
0.001354
0.001359
0.001349
0.001343
0.001377
0.001325
0.001335
0.001301
0.001293
0.001338
0.001359
0.001341
0.001322
0.001280
0.001262
0.001233
0.001228
0.001267
0.001299
0.001325
0.001330
0.001301
0.001288
0.001280
0.001307
0.001317
0.001272
0.001265
0.001288
0.001354
0.001343
0.001335
0.001267
0.001249
0.001278
0.001301
0.001367
0.001354
0.001333
0.001343
0.001346
0.001349
0.001309
0.001293
0.001317
0.001335
0.001367
0.001372
0.001398
0.001356
0.001343
0.001299
0.001291
0.001265
0.001244
0.001254
0.001304
0.001317
0.001296
0.001317
0.001322
0.001343
0.001322
0.001377
0.001354
0.001359
0.001364
0.001333
0.001286
0.001238
0.001257
0.001251
0.001267
0.001304
0.001272
0.001259
0.001254
0.001278
0.001251
0.001230
0.001262
0.001317
0.001328
0.001293
0.001254
0.001249
0.001283
0.001314
0.001328
0.001346
0.001320
0.001270
0.001270
0.001307
0.001307
0.001259
0.001286
0.001333
0.001349
0.001343
0.001356
0.001333
0.001304
0.001349
0.001354
0.001338
0.001359
0.001351
0.001307
0.001312
0.001343
0.001341
0.001288
0.001328
0.001362
0.001338
0.001286
0.001280
0.001265
0.001230
0.001254
0.001280
0.001322
0.001322
0.001322
0.001288
0.001312
0.001304
0.001283
0.001362
0.001362
0.001372
0.001377
0.001412
0.001380
0.001364
0.001333
0.001314
0.001304
0.001330
0.001335
0.001330
0.001325
0.001301
0.001291
0.001270
0.001299
0.001265
0.001267
0.001278
0.001296
0.001328
0.001356
0.001356
0.001322
0.001278
0.001283
0.001230
0.001249
0.001249
0.001238
0.001291
0.001267
0.001301
0.001299
0.001299
0.001296
t0(sec) = 0.000000E+0
dt(sec) = 4.000000E-10
F3:INSP "
DESCRIPTOR_NAME    : WAVEDESC           
TEMPLATE_NAME      : LECROY_2_3         
COMM_TYPE          : word               
COMM_ORDER         : HIFIRST            
WAVE_DESCRIPTOR    : 346                
USER_TEXT          : 0                  
RES_DESC1          : 0                  
TRIGTIME_ARRAY     : 0                  
RIS_TIME_ARRAY     : 0                  
RES_ARRAY1         : 0                  
WAVE_ARRAY_1       : 9952               
WAVE_ARRAY_2       : 0                  
RES_ARRAY2         : 0                  
RES_ARRAY3         : 0                  
INSTRUMENT_NAME    : LECROYHDO6104      
INSTRUMENT_NUMBER  : 6308               
TRACE_LABEL        :                    
RESERVED1          : 4976               
RESERVED2          : 0                  
WAVE_ARRAY_COUNT   : 4976               
PNTS_PER_SCREEN    : 5000               
FIRST_VALID_PNT    : 0                  
LAST_VALID_PNT     : 4975               
FIRST_POINT        : 0                  
SPARSING_FACTOR    : 1                  
SEGMENT_INDEX      : 0                  
SUBARRAY_COUNT     : 1                  
SWEEPS_PER_ACQ     : 200                
POINTS_PER_PAIR    : 0                  
PAIR_OFFSET        : 0                  
VERTICAL_GAIN      : 2.4989e-006        
VERTICAL_OFFSET    : 1.6500e-002        
MAX_VALUE          : 3.0578e+004        
MIN_VALUE          : 1.4827e+004        
NOMINAL_BITS       : 16                 
NOM_SUBARRAY_COUNT : 1                  
HORIZ_INTERVAL     : 4.0000e-010        
HORIZ_OFFSET       : -2.00000000e-007   
PIXEL_OFFSET       : -2.10000000e-007   
VERTUNIT           : Unit Name = V
HORUNIT            : Unit Name = S
HORIZ_UNCERTAINTY  : 1.0000e-012        
TRIGGER_TIME       : Date = APR 17, 2024, Time = 19:13:28.228644219
ACQ_DURATION       : 9.9991e+000        
RECORD_TYPE        : single_sweep       
PROCESSING_DONE    : no_processing      
RESERVED5          : 0                  
RIS_SWEEPS         : 1                  
TIMEBASE           : 200_ns/div         
VERT_COUPLING      : DC_50_Ohms         
PROBE_ATT          : 1.0000e+000        
FIXED_VERT_GAIN    : 5_mV/div           
BANDWIDTH_LIMIT    : off                
VERTICAL_VERNIER   : 1.0000e+000        
ACQ_VERT_OFFSET    : 0.0000e+000        
WAVE_SOURCE        : UNKNOWN            
"
0.000497
0.000470
0.000495
0.000500
0.000487
0.000492
0.000482
0.000472
0.000460
0.000480
0.000487
0.000462
0.000477
0.000520
0.000485
0.000495
0.000510
0.000495
0.000520
0.000510
0.000497
0.000465
0.000475
0.000467
0.000452
0.000467
0.000492
0.000475
0.000457
0.000472
0.000490
0.000445
0.000472
0.000492
0.000472
0.000457
0.000477
0.000452
0.000475
0.000467
0.000470
0.000497
0.000462
0.000470
0.000472
0.000477
0.000502
0.000487
0.000487
0.000517
0.000515
0.000465
0.000502
0.000505
0.000480
0.000462
0.000497
0.000492
0.000480
0.000485
0.000507
0.000470
0.000485
0.000500
0.000482
0.000475
0.000505
0.000465
0.000467
0.000477
0.000507
0.000472
0.000482
0.000475
0.000520
0.000487
0.000475
0.000512
0.000515
0.000487
0.000500
0.000467
0.000502
0.000485
0.000475
0.000505
0.000502
0.000485
0.000490
0.000485
0.000490
0.000480
0.000470
0.000467
0.000507
0.000462
0.000510
0.000475
0.000460
0.000490
0.000500
0.000492
0.000502
0.000492
0.000492
0.000502
0.000522
0.000465
0.000472
0.000492
0.000495
0.000492
0.000492
0.000487
0.000500
0.000460
0.000510
0.000497
0.000487
0.000500
0.000497
0.000455
0.000495
0.000480
0.000475
0.000457
0.000495
0.000477
0.000452
0.000480
0.000517
0.000475
0.000480
0.000492
0.000462
0.000477
0.000492
0.000487
0.000485
0.000480
0.000472
0.000472
0.000460
0.000480
0.000492
0.000487
0.000522
0.000507
0.000475
0.000495
0.000522
0.000457
0.000492
0.000512
0.000462
0.000477
0.000472
0.000477
0.000487
0.000472
0.000490
0.000505
0.000515
0.000490
0.000500
0.000515
0.000502
0.000520
0.000480
0.000512
0.000502
0.000487
0.000485
0.000507
0.000522
0.000487
0.000492
0.000495
0.000522
0.000495
0.000520
0.000507
0.000502
0.000480
0.000472
0.000477
0.000482
0.000492
0.000490
0.000512
0.000530
0.000465
0.000485
0.000497
0.000487
0.000472
0.000475
0.000507
0.000490
0.000450
0.000485
0.000480
0.000485
0.000490
0.000490
0.000507
0.000515
0.000480
0.000485
0.000487
0.000505
0.000460
0.000482
0.000497
0.000485
0.000477
0.000497
0.000480
0.000505
0.000472
0.000490
0.000487
0.000460
0.000497
0.000487
0.000472
0.000502
0.000477
0.000485
0.000492
0.000497
0.000505
0.000465
0.000497
0.000495
0.000467
0.000497
0.000467
0.000480
0.000465
0.000492
0.000492
0.000467
0.000480
0.000490
0.000452
0.000462
0.000490
0.000487
0.000502
0.000522
0.000510
0.000475
0.000482
0.000505
0.000467
0.000482
0.000515
0.000507
0.000467
0.000495
0.000497
0.000495
0.000472
0.000500
0.000460
0.000505
0.000510
0.000512
0.000495
0.000510
0.000495
0.000482
0.000477
0.000505
0.000480
0.000460
0.000487
0.000500
0.000477
0.000505
0.000472
0.000505
0.000477
0.000507
0.000490
0.000497
0.000507
0.000497
0.000485
0.000485
0.000507
0.000485
0.000505
0.000505
0.000480
0.000467
0.000492
0.000517
0.000485
0.000485
0.000505
0.000495
0.000485
0.000505
0.000472
0.000505
0.000487
0.000485
0.000477
0.000510
0.000515
0.000490
0.000497
0.000515
0.000512
0.000475
0.000515
0.000492
0.000477
0.000495
0.000477
0.000485
0.000480
0.000507
0.000482
0.000487
0.000485
0.000490
0.000487
0.000502
0.000517
0.000492
0.000477
0.000490
0.000475
0.000482
0.000477
0.000502
0.000467
0.000475
0.000482
0.000445
0.000450
0.000480
0.000462
0.000457
0.000485
0.000472
0.000472
0.000485
0.000477
0.000477
0.000482
0.000505
0.000507
0.000495
0.000492
0.000500
0.000445
0.000447
0.000487
0.000450
0.000460
0.000477
0.000455
0.000472
0.000442
0.000475
0.000475
0.000482
0.000480
0.000447
0.000475
0.000500
0.000497
0.000465
0.000507
0.000510
0.000467
0.000500
0.000517
0.000500
0.000505
0.000490
0.000490
0.000507
0.000467
0.000512
0.000480
0.000502
0.000522
0.000490
0.000512
0.000507
0.000495
0.000462
0.000497
0.000525
0.000475
0.000475
0.000510
0.000507
0.000507
0.000497
0.000512
0.000490
0.000495
0.000520
0.000487
0.000505
0.000500
0.000492
0.000457
0.000485
0.000470
0.000432
0.000465
0.000472
0.000437
0.000450
0.000460
0.000505
0.000470
0.000495
0.000515
0.000490
0.000517
0.000532
0.000490
0.000465
0.000447
0.000432
0.000407
0.000447
0.000450
0.000520
0.000502
0.000515
0.000480
0.000467
0.000470
0.000480
0.000490
0.000510
0.000540
0.000452
0.000440
0.000440
0.000405
0.000427
0.000457
0.000517
0.000580
0.000605
0.000590
0.000507
0.000435
0.000412
0.000395
0.000417
0.000482
0.000532
0.000512
0.000532
0.000512
0.000517
0.000540
0.000557
0.000572
0.000520
0.000455
0.000427
0.000365
0.000355
0.000375
0.000440
0.000490
0.000512
0.000512
0.000480
0.000495
0.000517
0.000507
0.000545
0.000600
0.000637
0.000595
0.000600
0.000500
0.000410
0.000387
0.000387
0.000372
0.000437
0.000475
0.000472
0.000457
0.000485
0.000445
0.000480
0.000545
0.000597
0.000595
0.000517
0.000442
0.000397
0.000332
0.000330
0.000332
0.000350
0.000335
0.000332
0.000360
0.000420
0.000547
0.000640
0.000702
0.000735
0.000680
0.000630
0.000600
0.000610
0.000602
0.000627
0.000577
0.000525
0.000460
0.000417
0.000402
0.000417
0.000465
0.000495
0.000477
0.000405
0.000385
0.000342
0.000335
0.000367
0.000455
0.000522
0.000580
0.000682
0.000652
0.000667
0.000657
0.000585
0.000487
0.000362
0.000242
0.000132
0.000065
0.000100
0.000137
0.000245
0.000400
0.000562
0.000710
0.000860
0.000950
0.000980
0.001000
0.000980
0.000817
0.000622
0.000432
0.000222
-0.000035
-0.000232
-0.000465
-0.000720
-0.001062
-0.001394
-0.001812
-0.002234
-0.002641
-0.003079
-0.003496
-0.003808
-0.004118
-0.004475
-0.004748
-0.004985
-0.005328
-0.005595
-0.005742
-0.005807
-0.005817
-0.005625
-0.005333
-0.005030
-0.004770
-0.004550
-0.004373
-0.004203
-0.004043
-0.003868
-0.003733
-0.003598
-0.003541
-0.003593
-0.003708
-0.003758
-0.003813
-0.003761
-0.003613
-0.003506
-0.003438
-0.003331
-0.003231
-0.003154
-0.003049
-0.002839
-0.002694
-0.002514
-0.002341
-0.002207
-0.002212
-0.002202
-0.002269
-0.002376
-0.002429
-0.002414
-0.002361
-0.002284
-0.002129
-0.001922
-0.001872
-0.001794
-0.001702
-0.001637
-0.001704
-0.001684
-0.001737
-0.001822
-0.001904
-0.001919
-0.001892
-0.001744
-0.001604
-0.001417
-0.001247
-0.001075
-0.001055
-0.001055
-0.001060
-0.001127
-0.001249
-0.001382
-0.001422
-0.001524
-0.001564
-0.001499
-0.001424
-0.001337
-0.001147
-0.000962
-0.000787
-0.000605
-0.000480
-0.000382
-0.000337
-0.000322
-0.000420
-0.000547
-0.000685
-0.000832
-0.001020
-0.001105
-0.001167
-0.001142
-0.001169
-0.001022
-0.000900
-0.000800
-0.000665
-0.000545
-0.000460
-0.000400
-0.000362
-0.000375
-0.000382
-0.000420
-0.000497
-0.000547
-0.000607
-0.000645
-0.000740
-0.000755
-0.000695
-0.000722
-0.000722
-0.000662
-0.000595
-0.000540
-0.000435
-0.000335
-0.000267
-0.000160
-0.000140
-0.000150
-0.000177
-0.000200
-0.000345
-0.000477
-0.000522
-0.000520
-0.000572
-0.000565
-0.000492
-0.000445
-0.000442
-0.000367
-0.000340
-0.000360
-0.000370
-0.000302
-0.000305
-0.000280
-0.000255
-0.000287
-0.000287
-0.000257
-0.000252
-0.000232
-0.000170
-0.000150
-0.000220
-0.000245
-0.000225
-0.000237
-0.000275
-0.000192
-0.000127
-0.000130
-0.000142
-0.000072
-0.000117
-0.000120
-0.000080
-0.000070
-0.000120
-0.000135
-0.000137
-0.000137
-0.000152
-0.000117
-0.000142
-0.000190
-0.000232
-0.000260
-0.000350
-0.000327
-0.000285
-0.000262
-0.000207
-0.000097
-0.000067
-0.000025
0.000040
0.000070
0.000115
0.000120
0.000122
0.000125
0.000095
0.000090
-0.000015
-0.000075
-0.000053
-0.000100
-0.000172
-0.000150
-0.000165
-0.000157
-0.000185
-0.000082
-0.000035
0.000007
0.000132
0.000165
0.000215
0.000255
0.000262
0.000210
0.000180
0.000125
0.000022
-0.000072
-0.000175
-0.000240
-0.000350
-0.000350
-0.000270
-0.000235
-0.000165
-0.000020
0.000060
0.000167
0.000282
0.000325
0.000367
0.000405
0.000400
0.000362
0.000312
0.000287
0.000165
0.000050
0.000010
-0.000020
-0.000100
-0.000097
-0.000092
-0.000095
-0.000072
0.000005
0.000075
0.000112
0.000210
0.000272
0.000235
0.000295
0.000297
0.000240
0.000205
0.000165
0.000067
-0.000010
-0.000030
-0.000045
-0.000112
-0.000067
0.000030
0.000047
0.000102
0.000225
0.000245
0.000242
0.000267
0.000292
0.000242
0.000202
0.000167
0.000120
0.000080
0.000125
0.000082
0.000062
0.000182
0.000210
0.000150
0.000202
0.000215
0.000205
0.000152
0.000182
0.000110
0.000070
0.000085
0.000097
0.000097
0.000110
0.000185
0.000177
0.000212
0.000285
0.000297
0.000282
0.000360
0.000370
0.000290
0.000307
0.000297
0.000237
0.000167
0.000157
0.000122
0.000095
0.000142
0.000192
0.000200
0.000277
0.000350
0.000342
0.000337
0.000375
0.000335
0.000232
0.000222
0.000222
0.000097
0.000050
0.000110
0.000062
0.000020
0.000097
0.000125
0.000172
0.000260
0.000320
0.000347
0.000340
0.000372
0.000342
0.000275
0.000322
0.000287
0.000180
0.000150
0.000165
0.000075
0.000097
0.000187
0.000247
0.000267
0.000380
0.000430
0.000422
0.000445
0.000457
0.000342
0.000332
0.000295
0.000230
0.000185
0.000175
0.000152
0.000087
0.000135
0.000200
0.000192
0.000272
0.000382
0.000407
0.000390
0.000430
0.000400
0.000337
0.000280
0.000275
0.000190
0.000137
0.000140
0.000137
0.000107
0.000222
0.000282
0.000322
0.000385
0.000485
0.000492
0.000475
0.000487
0.000442
0.000337
0.000307
0.000277
0.000190
0.000140
0.000147
0.000172
0.000162
0.000205
0.000282
0.000287
0.000375
0.000422
0.000397
0.000442
0.000442
0.000390
0.000327
0.000307
0.000265
0.000177
0.000185
0.000232
0.000222
0.000265
0.000340
0.000340
0.000387
0.000410
0.000430
0.000437
0.000445
0.000420
0.000367
0.000352
0.000327
0.000262
0.000230
0.000230
0.000252
0.000207
0.000240
0.000290
0.000322
0.000360
0.000412
0.000430
0.000375
0.000382
0.000342
0.000307
0.000290
0.000270
0.000217
0.000200
0.000275
0.000265
0.000277
0.000357
0.000390
0.000380
0.000447
0.000467
0.000460
0.000465
0.000452
0.000387
0.000367
0.000317
0.000325
0.000240
0.000225
0.000247
0.000232
0.000250
0.000357
0.000362
0.000392
0.000447
0.000450
0.000437
0.000430
0.000427
0.000355
0.000295
0.000290
0.000230
0.000187
0.000240
0.000227
0.000215
0.000287
0.000355
0.000370
0.000432
0.000495
0.000492
0.000485
0.000507
0.000502
0.000437
0.000402
0.000375
0.000300
0.000292
0.000327
0.000287
0.000307
0.000347
0.000397
0.000392
0.000430
0.000487
0.000420
0.000412
0.000440
0.000362
0.000335
0.000312
0.000307
0.000277
0.000275
0.000307
0.000317
0.000337
0.000405
0.000392
0.000422
0.000415
0.000455
0.000445
0.000450
0.000447
0.000365
0.000335
0.000347
0.000352
0.000277
0.000300
0.000335
0.000315
0.000352
0.000427
0.000455
0.000432
0.000470
0.000457
0.000475
0.000447
0.000405
0.000355
0.000322
0.000317
0.000292
0.000272
0.000337
0.000300
0.000290
0.000340
0.000400
0.000420
0.000417
0.000492
0.000500
0.000472
0.000487
0.000465
0.000412
0.000390
0.000380
0.000327
0.000335
0.000322
0.000315
0.000340
0.000392
0.000392
0.000425
0.000457
0.000485
0.000427
0.000402
0.000427
0.000377
0.000285
0.000315
0.000302
0.000235
0.000275
0.000280
0.000315
0.000347
0.000410
0.000455
0.000465
0.000480
0.000480
0.000442
0.000435
0.000455
0.000340
0.000300
0.000347
0.000302
0.000300
0.000322
0.000325
0.000342
0.000367
0.000400
0.000455
0.000495
0.000500
0.000527
0.000492
0.000475
0.000477
0.000410
0.000375
0.000365
0.000312
0.000315
0.000332
0.000302
0.000272
0.000325
0.000377
0.000380
0.000402
0.000410
0.000412
0.000387
0.000405
0.000392
0.000377
0.000345
0.000337
0.000350
0.000370
0.000402
0.000380
0.000357
0.000402
0.000395
0.000405
0.000447
0.000440
0.000420
0.000435
0.000437
0.000415
0.000417
0.000407
0.000380
0.000385
0.000407
0.000392
0.000395
0.000415
0.000425
0.000405
0.000417
0.000422
0.000447
0.000435
0.000435
0.000430
0.000390
0.000377
0.000380
0.000360
0.000347
0.000377
0.000412
0.000395
0.000455
0.000420
0.000437
0.000440
0.000457
0.000425
0.000385
0.000400
0.000355
0.000322
0.000307
0.000305
0.000270
0.000275
0.000325
0.000327
0.000367
0.000380
0.000387
0.000405
0.000442
0.000425
0.000442
0.000442
0.000460
0.000440
0.000425
0.000432
0.000442
0.000400
0.000425
0.000422
0.000405
0.000397
0.000405
0.000407
0.000395
0.000392
0.000417
0.000382
0.000375
0.000385
0.000392
0.000387
0.000425
0.000407
0.000400
0.000430
0.000430
0.000395
0.000447
0.000450
0.000437
0.000457
0.000475
0.000475
0.000450
0.000440
0.000437
0.000405
0.000432
0.000422
0.000395
0.000365
0.000400
0.000370
0.000392
0.000385
0.000415
0.000430
0.000430
0.000440
0.000452
0.000397
0.000457
0.000422
0.000422
0.000435
0.000417
0.000382
0.000410
0.000400
0.000400
0.000390
0.000420
0.000422
0.000417
0.000437
0.000452
0.000445
0.000420
0.000440
0.000435
0.000407
0.000452
0.000407
0.000402
0.000400
0.000427
0.000410
0.000430
0.000447
0.000450
0.000457
0.000457
0.000450
0.000450
0.000417
0.000427
0.000397
0.000392
0.000372
0.000410
0.000385
0.000392
0.000390
0.000352
0.000375
0.000420
0.000417
0.000470
0.000440
0.000475
0.000470
0.000485
0.000445
0.000452
0.000410
0.000410
0.000390
0.000362
0.000375
0.000412
0.000360
0.000395
0.000387
0.000387
0.000390
0.000397
0.000427
0.000430
0.000400
0.000430
0.000422
0.000412
0.000442
0.000410
0.000390
0.000407
0.000412
0.000407
0.000430
0.000455
0.000412
0.000410
0.000407
0.000405
0.000422
0.000415
0.000425
0.000420
0.000412
0.000412
0.000417
0.000415
0.000410
0.000420
0.000417
0.000475
0.000452
0.000462
0.000450
0.000480
0.000442
0.000415
0.000465
0.000460
0.000420
0.000432
0.000445
0.000412
0.000390
0.000400
0.000390
0.000412
0.000402
0.000420
0.000425
0.000432
0.000462
0.000440
0.000440
0.000472
0.000425
0.000435
0.000432
0.000432
0.000380
0.000390
0.000420
0.000375
0.000377
0.000385
0.000390
0.000387
0.000422
0.000440
0.000427
0.000445
0.000452
0.000447
0.000467
0.000485
0.000437
0.000460
0.000472
0.000467
0.000437
0.000415
0.000430
0.000387
0.000380
0.000392
0.000427
0.000365
0.000407
0.000400
0.000405
0.000405
0.000397
0.000427
0.000412
0.000427
0.000435
0.000445
0.000437
0.000495
0.000430
0.000452
0.000477
0.000465
0.000417
0.000415
0.000425
0.000390
0.000397
0.000395
0.000377
0.000377
0.000400
0.000412
0.000405
0.000442
0.000440
0.000445
0.000485
0.000470
0.000457
0.000440
0.000452
0.000452
0.000405
0.000440
0.000460
0.000417
0.000432
0.000437
0.000400
0.000425
0.000460
0.000430
0.000445
0.000487
0.000477
0.000480
0.000465
0.000495
0.000457
0.000450
0.000445
0.000460
0.000417
0.000410
0.000450
0.000437
0.000417
0.000457
0.000445
0.000442
0.000442
0.000470
0.000450
0.000452
0.000437
0.000420
0.000422
0.000455
0.000455
0.000410
0.000440
0.000470
0.000420
0.000467
0.000437
0.000427
0.000420
0.000445
0.000450
0.000437
0.000450
0.000442
0.000445
0.000400
0.000417
0.000437
0.000425
0.000450
0.000437
0.000432
0.000472
0.000452
0.000395
0.000422
0.000422
0.000412
0.000397
0.000440
0.000425
0.000405
0.000415
0.000412
0.000400
0.000437
0.000437
0.000442
0.000465
0.000470
0.000417
0.000415
0.000442
0.000410
0.000412
0.000425
0.000440
0.000435
0.000410
0.000430
0.000447
0.000447
0.000435
0.000432
0.000432
0.000462
0.000460
0.000442
0.000455
0.000482
0.000437
0.000435
0.000460
0.000447
0.000390
0.000400
0.000437
0.000407
0.000410
0.000422
0.000437
0.000415
0.000447
0.000462
0.000425
0.000460
0.000470
0.000437
0.000455
0.000472
0.000450
0.000450
0.000452
0.000442
0.000420
0.000410
0.000460
0.000427
0.000402
0.000465
0.000452
0.000432
0.000452
0.000487
0.000450
0.000452
0.000477
0.000452
0.000427
0.000442
0.000460
0.000422
0.000450
0.000492
0.000442
0.000462
0.000500
0.000470
0.000445
0.000492
0.000492
0.000455
0.000447
0.000477
0.000452
0.000432
0.000452
0.000452
0.000445
0.000437
0.000425
0.000425
0.000402
0.000452
0.000407
0.000387
0.000442
0.000400
0.000382
0.000445
0.000425
0.000407
0.000422
0.000432
0.000427
0.000435
0.000437
0.000460
0.000415
0.000465
0.000475
0.000440
0.000455
0.000482
0.000450
0.000447
0.000455
0.000457
0.000407
0.000465
0.000452
0.000442
0.000447
0.000467
0.000475
0.000452
0.000452
0.000452
0.000425
0.000470
0.000445
0.000425
0.000442
0.000452
0.000422
0.000410
0.000427
0.000465
0.000425
0.000435
0.000440
0.000447
0.000440
0.000440
0.000465
0.000465
0.000462
0.000460
0.000435
0.000435
0.000450
0.000397
0.000427
0.000460
0.000422
0.000442
0.000457
0.000452
0.000442
0.000462
0.000475
0.000470
0.000447
0.000502
0.000447
0.000475
0.000442
0.000462
0.000447
0.000465
0.000472
0.000415
0.000442
0.000477
0.000462
0.000450
0.000470
0.000482
0.000455
0.000470
0.000482
0.000462
0.000430
0.000492
0.000487
0.000425
0.000460
0.000442
0.000392
0.000427
0.000427
0.000420
0.000437
0.000467
0.000425
0.000442
0.000455
0.000460
0.000420
0.000425
0.000472
0.000465
0.000450
0.000455
0.000462
0.000437
0.000435
0.000460
0.000422
0.000457
0.000447
0.000452
0.000445
0.000462
0.000447
0.000435
0.000467
0.000505
0.000432
0.000432
0.000475
0.000427
0.000442
0.000440
0.000450
0.000435
0.000437
0.000465
0.000447
0.000437
0.000430
0.000445
0.000432
0.000460
0.000445
0.000415
0.000462
0.000497
0.000442
0.000445
0.000495
0.000465
0.000447
0.000445
0.000442
0.000460
0.000460
0.000460
0.000457
0.000480
0.000492
0.000460
0.000452
0.000472
0.000432
0.000445
0.000437
0.000472
0.000402
0.000407
0.000442
0.000437
0.000437
0.000457
0.000457
0.000445
0.000460
0.000482
0.000477
0.000430
0.000452
0.000457
0.000407
0.000462
0.000452
0.000425
0.000437
0.000455
0.000437
0.000435
0.000470
0.000447
0.000447
0.000472
0.000480
0.000415
0.000440
0.000477
0.000470
0.000462
0.000485
0.000480
0.000490
0.000492
0.000487
0.000452
0.000442
0.000447
0.000442
0.000402
0.000452
0.000425
0.000412
0.000417
0.000450
0.000427
0.000427
0.000465
0.000457
0.000470
0.000482
0.000480
0.000477
0.000472
0.000505
0.000432
0.000427
0.000455
0.000440
0.000437
0.000445
0.000452
0.000417
0.000440
0.000447
0.000422
0.000420
0.000450
0.000430
0.000457
0.000445
0.000460
0.000460
0.000467
0.000435
0.000452
0.000440
0.000487
0.000490
0.000452
0.000512
0.000505
0.000470
0.000452
0.000487
0.000472
0.000452
0.000480
0.000450
0.000442
0.000435
0.000437
0.000410
0.000440
0.000435
0.000432
0.000437
0.000447
0.000437
0.000435
0.000432
0.000482
0.000440
0.000472
0.000487
0.000485
0.000480
0.000507
0.000457
0.000460
0.000440
0.000467
0.000452
0.000460
0.000462
0.000432
0.000435
0.000440
0.000425
0.000440
0.000465
0.000485
0.000450
0.000472
0.000487
0.000455
0.000440
0.000445
0.000457
0.000415
0.000440
0.000470
0.000452
0.000457
0.000460
0.000445
0.000425
0.000460
0.000417
0.000445
0.000457
0.000470
0.000450
0.000445
0.000462
0.000442
0.000425
0.000462
0.000475
0.000445
0.000475
0.000500
0.000445
0.000500
0.000502
0.000480
0.000465
0.000490
0.000472
0.000440
0.000427
0.000467
0.000417
0.000460
0.000462
0.000465
0.000442
0.000447
0.000460
0.000425
0.000425
0.000475
0.000452
0.000475
0.000462
0.000490
0.000460
0.000495
0.000495
0.000442
0.000447
0.000495
0.000440
0.000447
0.000475
0.000480
0.000435
0.000467
0.000462
0.000447
0.000490
0.000480
0.000480
0.000460
0.000445
0.000445
0.000425
0.000450
0.000455
0.000437
0.000445
0.000487
0.000450
0.000437
0.000450
0.000470
0.000432
0.000447
0.000467
0.000435
0.000455
0.000475
0.000422
0.000420
0.000445
0.000460
0.000430
0.000457
0.000475
0.000430
0.000455
0.000477
0.000427
0.000452
0.000470
0.000462
0.000447
0.000467
0.000480
0.000442
0.000435
0.000475
0.000427
0.000447
0.000435
0.000462
0.000465
0.000472
0.000462
0.000437
0.000475
0.000470
0.000427
0.000435
0.000427
0.000445
0.000430
0.000442
0.000485
0.000440
0.000452
0.000490
0.000467
0.000472
0.000492
0.000467
0.000455
0.000465
0.000472
0.000442
0.000427
0.000515
0.000447
0.000437
0.000455
0.000472
0.000450
0.000480
0.000485
0.000470
0.000457
0.000455
0.000445
0.000415
0.000465
0.000460
0.000427
0.000442
0.000442
0.000425
0.000387
0.000450
0.000415
0.000417
0.000455
0.000495
0.000462
0.000452
0.000497
0.000442
0.000450
0.000467
0.000472
0.000450
0.000507
0.000472
0.000450
0.000475
0.000482
0.000485
0.000430
0.000505
0.000442
0.000435
0.000462
0.000462
0.000445
0.000472
0.000497
0.000495
0.000465
0.000497
0.000485
0.000465
0.000465
0.000495
0.000462
0.000475
0.000470
0.000465
0.000442
0.000445
0.000435
0.000417
0.000432
0.000437
0.000427
0.000447
0.000450
0.000472
0.000457
0.000465
0.000482
0.000457
0.000452
0.000492
0.000472
0.000467
0.000487
0.000445
0.000472
0.000470
0.000452
0.000470
0.000462
0.000480
0.000452
0.000462
0.000432
0.000467
0.000427
0.000480
0.000460
0.000445
0.000460
0.000452
0.000430
0.000455
0.000435
0.000460
0.000470
0.000447
0.000437
0.000452
0.000482
0.000482
0.000470
0.000485
0.000470
0.000482
0.000462
0.000465
0.000460
0.000470
0.000437
0.000470
0.000420
0.000455
0.000427
0.000440
0.000462
0.000445
0.000455
0.000422
0.000445
0.000457
0.000452
0.000475
0.000477
0.000485
0.000457
0.000495
0.000497
0.000495
0.000470
0.000492
0.000422
0.000462
0.000472
0.000422
0.000467
0.000480
0.000420
0.000482
0.000445
0.000440
0.000435
0.000462
0.000470
0.000445
0.000450
0.000487
0.000480
0.000435
0.000462
0.000482
0.000430
0.000477
0.000477
0.000480
0.000457
0.000495
0.000480
0.000465
0.000447
0.000480
0.000435
0.000447
0.000480
0.000457
0.000415
0.000462
0.000477
0.000455
0.000495
0.000510
0.000472
0.000497
0.000502
0.000465
0.000450
0.000487
0.000462
0.000452
0.000455
0.000475
0.000477
0.000475
0.000480
0.000477
0.000450
0.000465
0.000495
0.000455
0.000450
0.000490
0.000457
0.000465
0.000487
0.000460
0.000475
0.000482
0.000475
0.000470
0.000480
0.000455
0.000457
0.000447
0.000450
0.000482
0.000470
0.000482
0.000502
0.000497
0.000507
0.000507
0.000497
0.000495
0.000465
0.000487
0.000475
0.000472
0.000450
0.000472
0.000445
0.000467
0.000460
0.000460
0.000457
0.000452
0.000450
0.000440
0.000487
0.000480
0.000447
0.000480
0.000450
0.000450
0.000425
0.000460
0.000442
0.000455
0.000470
0.000482
0.000480
0.000465
0.000482
0.000492
0.000470
0.000480
0.000452
0.000490
0.000492
0.000487
0.000482
0.000482
0.000472
0.000482
0.000475
0.000485
0.000477
0.000467
0.000445
0.000447
0.000455
0.000430
0.000460
0.000450
0.000462
0.000460
0.000440
0.000487
0.000495
0.000462
0.000500
0.000495
0.000480
0.000507
0.000482
0.000487
0.000480
0.000490
0.000450
0.000475
0.000470
0.000470
0.000472
0.000477
0.000495
0.000482
0.000437
0.000477
0.000460
0.000442
0.000475
0.000462
0.000452
0.000480
0.000465
0.000435
0.000472
0.000467
0.000452
0.000452
0.000432
0.000467
0.000425
0.000445
0.000440
0.000447
0.000435
0.000475
0.000510
0.000482
0.000520
0.000522
0.000495
0.000510
0.000487
0.000465
0.000462
0.000477
0.000445
0.000425
0.000430
0.000435
0.000437
0.000425
0.000457
0.000472
0.000450
0.000495
0.000470
0.000470
0.000490
0.000455
0.000442
0.000470
0.000447
0.000457
0.000480
0.000472
0.000477
0.000465
0.000472
0.000467
0.000470
0.000467
0.000482
0.000492
0.000420
0.000462
0.000435
0.000455
0.000430
0.000452
0.000427
0.000437
0.000430
0.000455
0.000435
0.000462
0.000445
0.000450
0.000487
0.000465
0.000460
0.000452
0.000445
0.000462
0.000442
0.000467
0.000462
0.000467
0.000475
0.000460
0.000452
0.000465
0.000455
0.000475
0.000487
0.000497
0.000465
0.000472
0.000492
0.000492
0.000440
0.000475
0.000467
0.000470
0.000465
0.000450
0.000460
0.000442
0.000480
0.000467
0.000462
0.000495
0.000490
0.000500
0.000472
0.000482
0.000472
0.000460
0.000490
0.000465
0.000445
0.000465
0.000442
0.000440
0.000432
0.000465
0.000475
0.000467
0.000497
0.000530
0.000495
0.000512
0.000492
0.000497
0.000500
0.000505
0.000462
0.000460
0.000477
0.000482
0.000442
0.000452
0.000455
0.000470
0.000452
0.000485
0.000480
0.000490
0.000492
0.000480
0.000490
0.000507
0.000497
0.000512
0.000487
0.000525
0.000485
0.000477
0.000465
0.000487
0.000455
0.000455
0.000467
0.000437
0.000455
0.000462
0.000460
0.000470
0.000465
0.000480
0.000460
0.000485
0.000480
0.000445
0.000465
0.000480
0.000450
0.000475
0.000495
0.000490
0.000460
0.000467
0.000457
0.000467
0.000430
0.000482
0.000427
0.000465
0.000500
0.000447
0.000465
0.000502
0.000460
0.000457
0.000482
0.000515
0.000475
0.000470
0.000490
0.000500
0.000442
0.000487
0.000487
0.000425
0.000435
0.000455
0.000435
0.000465
0.000467
0.000457
0.000457
0.000485
0.000470
0.000455
0.000447
0.000495
0.000470
0.000462
0.000507
0.000515
0.000472
0.000482
0.000477
0.000450
0.000480
0.000485
0.000447
0.000467
0.000480
0.000480
0.000435
0.000485
0.000470
0.000452
0.000440
0.000492
0.000435
0.000447
0.000492
0.000482
0.000435
0.000497
0.000512
0.000457
0.000495
0.000510
0.000460
0.000462
0.000462
0.000487
0.000432
0.000467
0.000465
0.000440
0.000440
0.000487
0.000467
0.000442
0.000482
0.000510
0.000435
0.000490
0.000517
0.000480
0.000492
0.000525
0.000477
0.000485
0.000490
0.000517
0.000482
0.000467
0.000497
0.000477
0.000470
0.000497
0.000460
0.000440
0.000477
0.000470
0.000467
0.000480
0.000485
0.000467
0.000462
0.000475
0.000497
0.000450
0.000462
0.000492
0.000462
0.000497
0.000500
0.000472
0.000470
0.000490
0.000492
0.000447
0.000490
0.000460
0.000427
0.000455
0.000475
0.000472
0.000397
0.000460
0.000435
0.000450
0.000462
0.000487
0.000472
0.000475
0.000495
0.000467
0.000490
0.000500
0.000465
0.000480
0.000452
0.000490
0.000447
0.000475
0.000490
0.000457
0.000440
0.000482
0.000445
0.000450
0.000475
0.000462
0.000465
0.000475
0.000487
0.000490
0.000475
0.000490
0.000492
0.000492
0.000480
0.000497
0.000447
0.000475
0.000462
0.000442
0.000472
0.000482
0.000467
0.000467
0.000500
0.000475
0.000467
0.000482
0.000497
0.000475
0.000450
0.000485
0.000460
0.000450
0.000485
0.000497
0.000442
0.000492
0.000485
0.000457
0.000475
0.000475
0.000475
0.000477
0.000472
0.000515
0.000430
0.000477
0.000502
0.000480
0.000470
0.000495
0.000467
0.000470
0.000497
0.000507
0.000480
0.000492
0.000517
0.000490
0.000470
0.000502
0.000485
0.000467
0.000452
0.000497
0.000447
0.000470
0.000487
0.000455
0.000450
0.000492
0.000462
0.000432
0.000480
0.000485
0.000435
0.000460
0.000492
0.000485
0.000460
0.000507
0.000495
0.000462
0.000477
0.000510
0.000452
0.000492
0.000490
0.000470
0.000482
0.000512
0.000502
0.000485
0.000477
0.000507
0.000472
0.000465
0.000500
0.000465
0.000450
0.000460
0.000450
0.000465
0.000437
0.000477
0.000470
0.000482
0.000497
0.000490
0.000465
0.000525
0.000487
0.000465
0.000482
0.000485
0.000450
0.000447
0.000485
0.000475
0.000445
0.000452
0.000455
0.000470
0.000480
0.000502
0.000480
0.000487
0.000512
0.000495
0.000490
0.000510
0.000487
0.000472
0.000472
0.000490
0.000427
0.000462
0.000490
0.000460
0.000457
0.000475
0.000490
0.000480
0.000470
0.000487
0.000480
0.000470
0.000477
0.000472
0.000452
0.000490
0.000467
0.000440
0.000460
0.000500
0.000435
0.000490
0.000492
0.000475
0.000452
0.000470
0.000497
0.000480
0.000467
0.000522
0.000485
0.000512
0.000530
0.000517
0.000475
0.000512
0.000490
0.000482
0.000492
0.000485
0.000465
0.000477
0.000480
0.000477
0.000452
0.000505
0.000475
0.000450
0.000477
0.000480
0.000465
0.000492
0.000482
0.000507
0.000477
0.000482
0.000492
0.000462
0.000477
0.000482
0.000467
0.000475
0.000477
0.000485
0.000457
0.000465
0.000457
0.000440
0.000462
0.000482
0.000445
0.000460
0.000485
0.000485
0.000467
0.000497
0.000492
0.000462
0.000475
0.000512
0.000497
0.000497
0.000497
0.000475
0.000475
0.000485
0.000485
0.000495
0.000517
0.000487
0.000460
0.000482
0.000500
0.000507
0.000465
0.000530
0.000497
0.000480
0.000497
0.000515
0.000470
0.000480
0.000490
0.000492
0.000455
0.000477
0.000495
0.000452
0.000457
0.000477
0.000445
0.000482
0.000492
0.000482
0.000477
0.000485
0.000467
0.000460
0.000477
0.000485
0.000470
0.000477
0.000502
0.000475
0.000457
0.000485
0.000517
0.000462
0.000462
0.000505
0.000485
0.000472
0.000490
0.000495
0.000465
0.000487
0.000497
0.000500
0.000485
0.000497
0.000485
0.000495
0.000495
0.000485
0.000450
0.000475
0.000507
0.000450
0.000455
0.000517
0.000475
0.000447
0.000490
0.000485
0.000465
0.000505
0.000460
0.000482
0.000495
0.000510
0.000507
0.000480
0.000502
0.000490
0.000462
0.000500
0.000485
0.000460
0.000475
0.000500
0.000470
0.000475
0.000512
0.000497
0.000470
0.000495
0.000495
0.000477
0.000487
0.000495
0.000462
0.000485
0.000495
0.000482
0.000485
0.000490
0.000477
0.000470
0.000460
0.000505
0.000450
0.000470
0.000472
0.000480
0.000432
0.000497
0.000470
0.000415
0.000452
0.000480
0.000452
0.000477
0.000462
0.000475
0.000467
0.000492
0.000485
0.000517
0.000497
0.000495
0.000485
0.000477
0.000497
0.000487
0.000470
0.000500
0.000467
0.000460
0.000497
0.000495
0.000477
0.000465
0.000487
0.000495
0.000442
0.000502
0.000497
0.000467
0.000465
0.000477
0.000480
0.000467
0.000480
0.000470
0.000465
0.000500
0.000475
0.000482
0.000495
0.000510
0.000460
0.000457
0.000490
0.000470
0.000460
0.000502
0.000490
0.000467
0.000472
0.000495
0.000470
0.000472
0.000495
0.000482
0.000487
0.000520
0.000482
0.000485
0.000462
0.000487
0.000475
0.000457
0.000475
0.000487
0.000460
0.000500
0.000480
0.000477
0.000475
0.000502
0.000475
0.000505
0.000500
0.000475
0.000487
0.000505
0.000475
0.000457
0.000455
0.000470
0.000447
0.000447
0.000455
0.000467
0.000460
0.000505
0.000495
0.000470
0.000485
0.000482
0.000477
0.000470
0.000475
0.000475
0.000472
0.000500
0.000452
0.000460
0.000465
0.000497
0.000480
0.000485
0.000497
0.000487
0.000447
0.000482
0.000470
0.000472
0.000460
0.000495
0.000490
0.000470
0.000457
0.000482
0.000460
0.000482
0.000482
0.000515
0.000502
0.000502
0.000492
0.000507
0.000515
0.000507
0.000495
0.000495
0.000510
0.000510
0.000497
0.000487
0.000447
0.000472
0.000432
0.000460
0.000472
0.000452
0.000450
0.000460
0.000480
0.000462
0.000445
0.000490
0.000497
0.000485
0.000495
0.000490
0.000487
0.000502
0.000480
0.000480
0.000485
0.000485
0.000465
0.000485
0.000480
0.000467
0.000442
0.000490
0.000472
0.000502
0.000460
0.000482
0.000480
0.000472
0.000472
0.000477
0.000480
0.000507
0.000467
0.000485
0.000470
0.000490
0.000455
0.000475
0.000472
0.000492
0.000480
0.000460
0.000470
0.000475
0.000432
0.000472
0.000485
0.000455
0.000472
0.000502
0.000475
0.000475
0.000497
0.000465
0.000465
0.000465
0.000455
0.000460
0.000457
0.000507
0.000475
0.000472
0.000470
0.000490
0.000457
0.000502
0.000485
0.000477
0.000460
0.000490
0.000490
0.000467
0.000455
0.000457
0.000472
0.000450
0.000455
0.000457
0.000457
0.000482
0.000480
0.000492
0.000467
0.000482
0.000455
0.000495
0.000490
0.000472
0.000472
0.000467
0.000465
0.000480
0.000445
0.000495
0.000462
0.000435
0.000502
0.000467
0.000477
0.000515
0.000485
0.000477
0.000515
0.000515
0.000470
0.000500
0.000517
0.000495
0.000465
0.000500
0.000495
0.000500
0.000487
0.000520
0.000482
0.000490
0.000482
0.000480
0.000490
0.000485
0.000482
0.000507
0.000497
0.000492
0.000460
0.000477
0.000477
0.000480
0.000445
0.000492
0.000475
0.000492
0.000495
0.000477
0.000500
0.000492
0.000500
0.000480
0.000467
0.000475
0.000472
0.000425
0.000480
0.000482
0.000460
0.000475
0.000477
0.000487
0.000485
0.000482
0.000465
0.000477
0.000462
0.000452
0.000462
0.000455
0.000477
0.000457
0.000485
0.000497
0.000505
0.000477
0.000467
0.000502
0.000465
0.000460
0.000475
0.000467
0.000477
0.000485
0.000442
0.000450
0.000445
0.000460
0.000455
0.000465
0.000450
0.000472
0.000452
0.000520
0.000475
0.000475
0.000507
0.000492
0.000467
0.000475
0.000492
0.000470
0.000467
0.000462
0.000480
0.000492
0.000452
0.000457
0.000475
0.000450
0.000462
0.000445
0.000455
0.000470
0.000460
0.000505
0.000507
0.000512
0.000497
0.000492
0.000510
0.000475
0.000485
0.000490
0.000500
0.000497
0.000495
0.000477
0.000477
0.000505
0.000450
0.000475
0.000445
0.000472
0.000480
0.000457
0.000467
0.000485
0.000455
0.000470
0.000475
0.000485
0.000475
0.000470
0.000470
0.000465
0.000490
0.000480
0.000480
0.000492
0.000495
0.000520
0.000470
0.000497
0.000465
0.000470
0.000487
0.000465
0.000477
0.000440
0.000450
0.000445
0.000455
0.000487
0.000472
0.000477
0.000472
0.000497
0.000482
0.000470
0.000475
0.000475
0.000452
0.000490
0.000462
0.000495
0.000472
0.000487
0.000455
0.000485
0.000455
0.000475
0.000475
0.000465
0.000502
0.000465
0.000490
0.000467
0.000465
0.000455
0.000467
0.000477
0.000447
0.000490
0.000470
0.000485
0.000492
0.000487
0.000455
0.000497
0.000497
0.000492
0.000495
0.000505
0.000477
0.000482
0.000505
0.000457
0.000482
0.000480
0.000470
0.000470
0.000465
0.000485
0.000467
0.000475
0.000502
0.000497
0.000475
0.000482
0.000455
0.000482
0.000460
0.000462
0.000457
0.000462
0.000455
0.000475
0.000465
0.000475
0.000455
0.000445
0.000480
0.000465
0.000465
0.000485
0.000457
0.000482
0.000472
0.000475
0.000500
0.000490
0.000490
0.000497
0.000515
0.000485
0.000467
0.000472
0.000465
0.000487
0.000447
0.000457
0.000480
0.000512
0.000497
0.000475
0.000485
0.000502
0.000455
0.000482
0.000510
0.000507
0.000505
0.000485
0.000495
0.000480
0.000462
0.000472
0.000470
0.000490
0.000475
0.000482
0.000432
0.000480
0.000472
0.000480
0.000497
0.000505
0.000497
0.000465
0.000510
0.000522
0.000490
0.000482
0.000485
0.000497
0.000490
0.000492
0.000487
0.000500
0.000477
0.000482
0.000480
0.000465
0.000467
0.000502
0.000480
0.000482
0.000447
0.000442
0.000430
0.000447
0.000455
0.000460
0.000485
0.000472
0.000480
0.000482
0.000475
0.000512
0.000480
0.000485
0.000522
0.000487
0.000490
0.000490
0.000497
0.000500
0.000470
0.000482
0.000485
0.000482
0.000462
0.000480
0.000480
0.000477
0.000465
0.000485
0.000502
0.000512
0.000497
0.000472
0.000512
0.000512
0.000457
0.000485
0.000485
0.000482
0.000490
0.000492
0.000475
0.000475
0.000472
0.000497
0.000472
0.000505
0.000467
0.000477
0.000485
0.000517
0.000472
0.000482
0.000515
0.000512
0.000487
0.000510
0.000495
0.000492
0.000475
0.000475
0.000477
0.000462
0.000485
0.000505
0.000475
0.000500
0.000490
0.000482
0.000475
0.000487
0.000472
0.000495
0.000485
0.000497
0.000487
0.000445
0.000487
0.000487
0.000470
0.000495
0.000492
0.000475
0.000470
0.000477
0.000502
0.000477
0.000480
0.000497
0.000472
0.000505
0.000507
0.000475
0.000487
0.000480
0.000460
0.000492
0.000480
0.000497
0.000477
0.000460
0.000465
0.000447
0.000470
0.000457
0.000492
0.000487
0.000460
0.000497
0.000465
0.000485
0.000482
0.000482
0.000447
0.000515
0.000495
0.000510
0.000502
0.000512
0.000470
0.000495
0.000512
0.000480
0.000467
0.000482
0.000485
0.000487
0.000470
0.000472
0.000465
0.000475
0.000455
0.000462
0.000447
0.000487
0.000460
0.000462
0.000465
0.000465
0.000482
0.000467
0.000490
0.000495
0.000485
0.000485
0.000480
0.000495
0.000492
0.000502
0.000487
0.000530
0.000475
0.000485
0.000490
0.000482
0.000477
0.000457
0.000475
0.000485
0.000487
0.000485
0.000455
0.000490
0.000475
0.000445
0.000435
0.000492
0.000480
0.000447
0.000460
0.000495
0.000447
0.000452
0.000492
0.000485
0.000485
0.000480
0.000475
0.000497
0.000480
0.000490
0.000497
0.000492
0.000480
0.000532
0.000475
0.000487
0.000497
0.000477
0.000460
0.000490
0.000442
0.000435
0.000440
0.000472
0.000440
0.000470
0.000477
0.000445
0.000450
0.000485
0.000462
0.000490
0.000480
0.000485
0.000462
0.000487
0.000497
0.000475
0.000470
0.000507
0.000470
0.000475
0.000467
0.000522
0.000462
0.000500
0.000505
0.000492
0.000510
0.000507
0.000492
0.000485
0.000455
0.000465
0.000480
0.000475
0.000495
0.000502
0.000490
0.000545
0.000507
0.000487
0.000502
0.000485
0.000477
0.000477
0.000502
0.000502
0.000475
0.000470
0.000465
0.000480
0.000455
0.000497
0.000460
0.000525
0.000502
0.000487
0.000480
0.000532
0.000487
0.000482
0.000467
0.000452
0.000447
0.000455
0.000460
0.000492
0.000445
0.000475
0.000500
0.000472
0.000475
0.000475
0.000472
0.000490
0.000475
0.000485
0.000460
0.000497
0.000485
0.000482
0.000497
0.000485
0.000467
0.000462
0.000495
0.000487
0.000472
0.000470
0.000455
0.000482
0.000470
0.000482
0.000467
0.000470
0.000460
0.000467
0.000457
0.000472
0.000475
0.000465
0.000467
0.000517
0.000460
0.000505
0.000487
0.000477
0.000485
0.000520
0.000472
0.000480
0.000477
0.000475
0.000475
0.000465
0.000482
0.000510
0.000460
0.000507
0.000465
0.000482
0.000477
0.000497
0.000485
0.000492
0.000497
0.000505
0.000492
0.000515
0.000522
0.000490
0.000485
0.000500
0.000490
0.000505
0.000502
0.000485
0.000467
0.000505
0.000480
0.000467
0.000497
0.000487
0.000482
0.000505
0.000512
0.000515
0.000495
0.000495
0.000510
0.000485
0.000487
0.000485
0.000480
0.000515
0.000507
0.000445
0.000477
0.000490
0.000467
0.000455
0.000492
0.000515
0.000482
0.000472
0.000487
0.000490
0.000472
0.000477
0.000505
0.000472
0.000462
0.000485
0.000455
0.000475
0.000445
0.000437
0.000432
0.000497
0.000470
0.000472
0.000480
0.000485
0.000477
0.000465
0.000457
0.000507
0.000440
0.000500
0.000487
0.000495
0.000475
0.000470
0.000482
0.000480
0.000490
0.000482
0.000497
0.000497
0.000482
0.000490
0.000470
0.000485
0.000490
0.000485
0.000502
0.000522
0.000460
0.000472
0.000470
0.000457
0.000465
0.000480
0.000482
0.000482
0.000497
0.000485
0.000470
0.000510
0.000487
0.000490
0.000485
0.000502
0.000472
0.000480
0.000490
0.000482
0.000462
0.000475
0.000525
0.000495
0.000482
0.000505
0.000507
0.000490
0.000465
0.000497
0.000482
0.000490
0.000472
0.000465
0.000485
0.000500
0.000487
0.000482
0.000500
0.000497
0.000472
0.000485
0.000532
0.000495
0.000452
0.000505
0.000485
0.000475
0.000492
0.000477
0.000487
0.000472
0.000487
0.000480
0.000487
0.000507
0.000487
0.000507
0.000510
0.000505
0.000470
0.000495
0.000492
0.000477
0.000462
0.000517
0.000470
0.000457
0.000482
0.000467
0.000455
0.000487
0.000480
0.000477
0.000457
0.000462
0.000472
0.000462
0.000455
0.000485
0.000442
0.000480
0.000462
0.000457
0.000465
0.000472
0.000452
0.000475
0.000497
0.000480
0.000495
0.000487
0.000490
0.000465
0.000482
0.000487
0.000497
0.000500
0.000487
0.000485
0.000462
0.000457
0.000470
0.000495
0.000462
0.000515
0.000487
0.000487
0.000487
0.000472
0.000460
0.000492
0.000477
0.000457
0.000482
0.000495
0.000457
0.000467
0.000460
0.000517
0.000485
0.000485
0.000490
0.000500
0.000482
0.000495
0.000475
0.000487
0.000467
0.000487
0.000465
0.000485
0.000490
0.000502
0.000460
0.000495
0.000482
0.000462
0.000462
0.000517
0.000492
0.000477
0.000497
0.000507
0.000462
0.000490
0.000477
0.000462
0.000490
0.000492
0.000497
0.000505
0.000480
0.000495
0.000477
0.000480
0.000510
0.000485
0.000512
0.000522
0.000480
0.000462
0.000505
0.000475
0.000450
0.000480
0.000497
0.000495
0.000462
0.000475
0.000455
0.000480
0.000455
0.000480
0.000455
0.000475
0.000480
0.000475
0.000467
0.000477
0.000455
0.000490
0.000505
0.000532
0.000497
0.000492
0.000505
0.000487
0.000452
0.000455
0.000490
0.000457
0.000475
0.000480
0.000492
0.000497
0.000490
0.000477
0.000447
0.000495
0.000470
0.000462
0.000497
0.000487
0.000475
0.000495
0.000487
0.000505
0.000467
0.000482
0.000485
0.000492
0.000480
0.000490
0.000455
0.000465
0.000447
0.000445
0.000467
0.000455
0.000465
0.000490
0.000482
0.000515
0.000487
0.000495
0.000502
0.000507
0.000472
0.000485
0.000505
0.000500
0.000487
0.000467
0.000490
0.000472
0.000487
0.000475
0.000482
0.000517
0.000527
0.000492
0.000497
0.000512
0.000480
0.000465
0.000500
0.000495
0.000465
0.000470
0.000480
0.000507
0.000505
0.000465
0.000500
0.000485
0.000467
0.000492
0.000472
0.000505
0.000480
0.000487
0.000475
0.000480
0.000475
0.000505
0.000467
0.000485
0.000460
0.000455
0.000472
0.000465
0.000467
0.000490
0.000480
0.000472
0.000465
0.000500
0.000445
0.000470
0.000485
0.000460
0.000482
0.000495
0.000460
0.000462
0.000472
0.000472
0.000450
0.000500
0.000490
0.000482
0.000502
0.000490
0.000470
0.000492
0.000492
0.000490
0.000502
0.000470
0.000510
0.000462
0.000475
0.000510
0.000480
0.000472
0.000515
0.000502
0.000497
0.000500
0.000495
0.000505
0.000482
0.000500
0.000510
0.000495
0.000495
0.000502
0.000472
0.000512
0.000500
0.000485
0.000500
0.000520
0.000467
0.000467
0.000500
0.000487
0.000470
0.000472
0.000495
0.000480
0.000472
0.000490
0.000485
0.000490
0.000467
0.000475
0.000470
0.000485
0.000475
0.000465
0.000452
0.000500
0.000475
0.000445
0.000495
0.000515
0.000460
0.000472
0.000477
0.000445
0.000467
0.000452
0.000482
0.000437
0.000450
0.000485
0.000467
0.000452
0.000495
0.000447
0.000460
0.000515
0.000485
0.000450
0.000495
0.000495
0.000480
0.000487
0.000517
0.000495
0.000490
0.000495
0.000497
0.000485
0.000470
0.000522
0.000477
0.000487
0.000520
0.000495
0.000470
0.000505
0.000490
0.000457
0.000505
0.000505
0.000495
0.000465
0.000495
0.000487
0.000455
0.000515
0.000515
0.000475
0.000495
0.000510
0.000475
0.000472
0.000517
0.000480
0.000472
0.000532
0.000495
0.000495
0.000500
0.000505
0.000500
0.000472
0.000515
0.000512
0.000482
0.000495
0.000495
0.000470
0.000462
0.000502
0.000480
0.000487
0.000485
0.000492
0.000472
0.000495
0.000497
0.000475
0.000467
0.000490
0.000477
0.000470
0.000470
0.000507
0.000462
0.000477
0.000495
0.000467
0.000467
0.000515
0.000480
0.000497
0.000487
0.000500
0.000502
0.000510
0.000482
0.000495
0.000482
0.000477
0.000485
0.000465
0.000472
0.000485
0.000447
0.000482
0.000477
0.000475
0.000467
0.000497
0.000502
0.000465
0.000487
0.000487
0.000472
0.000482
0.000490
0.000460
0.000490
0.000477
0.000470
0.000445
0.000480
0.000497
0.000487
0.000492
0.000502
0.000470
0.000472
0.000497
0.000492
0.000465
0.000522
0.000482
0.000465
0.000510
0.000530
0.000470
0.000482
0.000507
0.000470
0.000492
0.000500
0.000515
0.000477
0.000512
0.000497
0.000477
0.000497
0.000502
0.000447
0.000467
0.000460
0.000480
0.000425
0.000470
0.000467
0.000470
0.000460
0.000472
0.000440
0.000445
0.000465
0.000467
0.000460
0.000472
0.000485
0.000490
0.000485
0.000515
0.000470
0.000470
0.000495
0.000472
0.000457
0.000525
0.000475
0.000462
0.000477
0.000502
0.000500
0.000485
0.000492
0.000522
0.000477
0.000475
0.000525
0.000515
0.000467
0.000525
0.000490
0.000492
0.000507
0.000517
0.000465
0.000525
0.000525
0.000475
0.000480
0.000532
0.000482
0.000490
0.000492
0.000522
0.000455
0.000467
0.000505
0.000460
0.000447
0.000477
0.000480
0.000485
0.000485
0.000505
0.000455
0.000500
0.000522
0.000497
0.000485
0.000535
0.000502
0.000482
0.000505
0.000522
0.000457
0.000472
0.000482
0.000487
0.000497
0.000495
0.000490
0.000460
0.000462
0.000487
0.000452
0.000487
0.000522
0.000492
0.000470
0.000517
0.000505
0.000502
0.000497
0.000532
0.000470
0.000467
0.000477
0.000460
0.000470
0.000502
0.000487
0.000447
0.000462
0.000490
0.000457
0.000460
0.000480
0.000460
0.000465
0.000500
0.000510
0.000475
0.000490
0.000515
0.000485
0.000482
0.000500
0.000467
0.000457
0.000465
0.000460
0.000457
0.000472
0.000480
0.000447
0.000480
0.000482
0.000455
0.000492
0.000505
0.000467
0.000507
0.000500
0.000500
0.000502
0.000480
0.000515
0.000492
0.000485
0.000517
0.000512
0.000490
0.000480
0.000475
0.000445
0.000492
0.000465
0.000457
0.000465
0.000470
0.000450
0.000432
0.000435
0.000465
0.000465
0.000462
0.000492
0.000482
0.000460
0.000505
0.000492
0.000470
0.000492
0.000500
0.000472
0.000507
0.000497
0.000467
0.000450
0.000470
0.000455
0.000457
0.000497
0.000512
0.000465
0.000485
0.000495
0.000480
0.000495
0.000532
0.000490
0.000505
0.000492
0.000500
0.000480
0.000492
0.000502
0.000475
0.000475
0.000482
0.000472
0.000467
0.000472
0.000520
0.000470
0.000477
0.000510
0.000490
0.000482
0.000537
0.000495
0.000477
0.000500
0.000485
0.000452
0.000482
0.000475
0.000470
0.000485
0.000507
0.000497
0.000465
0.000472
0.000525
0.000475
0.000482
0.000537
0.000477
0.000460
0.000505
0.000482
0.000485
0.000490
0.000507
0.000490
0.000505
0.000485
0.000502
0.000465
0.000507
0.000507
0.000467
0.000487
0.000537
0.000485
0.000470
0.000527
0.000475
0.000475
0.000527
0.000475
0.000495
0.000497
0.000462
0.000485
0.000490
0.000467
0.000475
0.000445
0.000502
0.000460
0.000480
0.000487
0.000525
0.000482
0.000472
0.000507
0.000535
0.000490
0.000517
0.000497
0.000485
0.000492
0.000480
0.000477
0.000502
0.000522
0.000495
0.000475
0.000512
0.000490
0.000430
0.000460
0.000507
0.000465
0.000482
0.000485
0.000510
0.000457
0.000495
0.000485
0.000460
0.000465
0.000497
0.000497
0.000490
0.000532
0.000492
0.000475
0.000520
0.000477
0.000477
0.000497
0.000517
0.000500
0.000510
0.000515
0.000487
0.000487
0.000517
0.000507
0.000500
0.000495
0.000480
0.000460
0.000457
0.000472
0.000450
0.000490
0.000482
0.000480
0.000467
0.000487
0.000487
0.000445
0.000467
0.000502
0.000520
0.000460
0.000497
0.000497
0.000487
0.000485
0.000482
0.000500
0.000515
0.000495
0.000492
0.000475
0.000477
0.000490
0.000477
0.000472
0.000522
0.000510
0.000485
0.000500
0.000497
0.000440
0.000480
0.000495
0.000485
0.000507
0.000515
0.000480
0.000510
0.000500
0.000512
0.000487
0.000497
0.000507
0.000505
0.000495
0.000505
0.000477
0.000462
0.000467
0.000487
0.000440
0.000445
0.000490
0.000477
0.000477
0.000495
0.000472
0.000502
0.000470
0.000510
0.000525
0.000515
0.000527
0.000500
0.000475
0.000510
0.000487
0.000487
0.000487
0.000482
0.000462
0.000492
0.000460
0.000460
0.000462
0.000497
0.000470
0.000482
0.000502
0.000485
0.000495
0.000490
0.000487
0.000475
0.000460
0.000490
0.000487
0.000477
0.000460
0.000455
0.000470
0.000470
0.000460
0.000457
0.000465
0.000477
0.000485
0.000517
0.000500
0.000490
0.000477
0.000510
0.000485
0.000482
0.000475
0.000485
0.000457
0.000475
0.000470
0.000505
0.000465
0.000482
0.000487
0.000487
0.000487
0.000470
0.000457
0.000480
0.000487
0.000477
0.000472
0.000497
0.000450
0.000480
0.000470
0.000495
0.000455
0.000492
0.000465
0.000500
0.000497
0.000512
0.000505
0.000515
0.000502
0.000490
0.000512
0.000520
0.000495
0.000475
0.000495
0.000487
0.000492
0.000470
0.000480
0.000505
0.000492
0.000485
0.000480
0.000500
0.000500
0.000490
0.000487
0.000482
0.000477
0.000470
0.000465
0.000482
0.000475
0.000460
0.000485
0.000520
0.000487
0.000495
0.000507
0.000510
0.000492
0.000480
0.000485
0.000467
0.000445
0.000470
0.000472
0.000475
0.000465
0.000497
0.000485
0.000500
0.000492
0.000522
0.000515
0.000505
0.000487
0.000492
0.000485
0.000495
0.000477
0.000500
0.000470
0.000467
0.000477
0.000470
0.000465
0.000477
0.000467
0.000485
0.000460
0.000515
0.000460
0.000482
0.000495
0.000467
0.000490
0.000485
0.000485
0.000497
0.000495
0.000487
0.000500
0.000500
0.000500
0.000492
0.000462
0.000492
0.000500
0.000475
0.000482
0.000532
0.000485
0.000500
0.000475
0.000475
0.000457
0.000477
0.000492
0.000492
0.000500
t0(sec) = 0.000000E+0
dt(sec) = 4.000000E-10
F4:INSP "
DESCRIPTOR_NAME    : WAVEDESC           
TEMPLATE_NAME      : LECROY_2_3         
COMM_TYPE          : word               
COMM_ORDER         : HIFIRST            
WAVE_DESCRIPTOR    : 346                
USER_TEXT          : 0                  
RES_DESC1          : 0                  
TRIGTIME_ARRAY     : 0                  
RIS_TIME_ARRAY     : 0                  
RES_ARRAY1         : 0                  
WAVE_ARRAY_1       : 9932               
WAVE_ARRAY_2       : 0                  
RES_ARRAY2         : 0                  
RES_ARRAY3         : 0                  
INSTRUMENT_NAME    : LECROYHDO6104      
INSTRUMENT_NUMBER  : 6308               
TRACE_LABEL        :                    
RESERVED1          : 4966               
RESERVED2          : 0                  
WAVE_ARRAY_COUNT   : 4966               
PNTS_PER_SCREEN    : 5000               
FIRST_VALID_PNT    : 0                  
LAST_VALID_PNT     : 4965               
FIRST_POINT        : 0                  
SPARSING_FACTOR    : 1                  
SEGMENT_INDEX      : 0                  
SUBARRAY_COUNT     : 1                  
SWEEPS_PER_ACQ     : 200                
POINTS_PER_PAIR    : 0                  
PAIR_OFFSET        : 0                  
VERTICAL_GAIN      : 2.6238e-006        
VERTICAL_OFFSET    : 6.8001e-002        
MAX_VALUE          : 2.7366e+004        
MIN_VALUE          : 1.2377e+004        
NOMINAL_BITS       : 16                 
NOM_SUBARRAY_COUNT : 1                  
HORIZ_INTERVAL     : 4.0000e-010        
HORIZ_OFFSET       : -2.00000000e-007   
PIXEL_OFFSET       : -2.14000000e-007   
VERTUNIT           : Unit Name = V
HORUNIT            : Unit Name = S
HORIZ_UNCERTAINTY  : 1.0000e-012        
TRIGGER_TIME       : Date = APR 17, 2024, Time = 19:13:28.228644219
ACQ_DURATION       : 9.9991e+000        
RECORD_TYPE        : single_sweep       
PROCESSING_DONE    : no_processing      
RESERVED5          : 0                  
RIS_SWEEPS         : 1                  
TIMEBASE           : 200_ns/div         
VERT_COUPLING      : DC_50_Ohms         
PROBE_ATT          : 1.0000e+000        
FIXED_VERT_GAIN    : 5_mV/div           
BANDWIDTH_LIMIT    : off                
VERTICAL_VERNIER   : 1.0000e+000        
ACQ_VERT_OFFSET    : 0.0000e+000        
WAVE_SOURCE        : UNKNOWN            
"
0.000706
0.000708
0.000732
0.000714
0.000677
0.000700
0.000687
0.000685
0.000690
0.000695
0.000719
0.000703
0.000695
0.000703
0.000711
0.000703
0.000695
0.000706
0.000706
0.000714
0.000719
0.000711
0.000661
0.000682
0.000693
0.000695
0.000669
0.000687
0.000693
0.000690
0.000721
0.000740
0.000695
0.000682
0.000698
0.000729
0.000656
0.000598
0.000585
0.000632
0.000611
0.000601
0.000672
0.000708
0.000693
0.000677
0.000693
0.000698
0.000711
0.000708
0.000729
0.000724
0.000687
0.000719
0.000735
0.000695
0.000679
0.000700
0.000700
0.000721
0.000732
0.000708
0.000724
0.000729
0.000732
0.000719
0.000693
0.000677
0.000661
0.000682
0.000687
0.000724
0.000695
0.000682
0.000666
0.000674
0.000708
0.000685
0.000672
0.000698
0.000708
0.000714
0.000721
0.000729
0.000703
0.000674
0.000698
0.000729
0.000698
0.000700
0.000727
0.000664
0.000661
0.000690
0.000714
0.000690
0.000703
0.000703
0.000719
0.000687
0.000693
0.000737
0.000687
0.000656
0.000682
0.000682
0.000706
0.000703
0.000711
0.000724
0.000714
0.000724
0.000716
0.000719
0.000716
0.000714
0.000724
0.000714
0.000729
0.000729
0.000685
0.000732
0.000714
0.000674
0.000695
0.000677
0.000682
0.000677
0.000651
0.000698
0.000732
0.000724
0.000695
0.000653
0.000648
0.000687
0.000693
0.000729
0.000703
0.000711
0.000695
0.000724
0.000724
0.000721
0.000672
0.000611
0.000635
0.000669
0.000693
0.000693
0.000716
0.000748
0.000721
0.000695
0.000714
0.000666
0.000638
0.000645
0.000685
0.000682
0.000714
0.000716
0.000729
0.000727
0.000732
0.000708
0.000727
0.000693
0.000708
0.000716
0.000727
0.000735
0.000695
0.000656
0.000679
0.000690
0.000674
0.000693
0.000729
0.000737
0.000721
0.000721
0.000721
0.000708
0.000714
0.000714
0.000714
0.000695
0.000674
0.000682
0.000719
0.000721
0.000706
0.000729
0.000695
0.000695
0.000693
0.000732
0.000716
0.000703
0.000708
0.000716
0.000687
0.000716
0.000698
0.000737
0.000716
0.000721
0.000719
0.000719
0.000716
0.000724
0.000682
0.000719
0.000721
0.000711
0.000721
0.000693
0.000724
0.000706
0.000695
0.000711
0.000695
0.000706
0.000687
0.000716
0.000672
0.000716
0.000706
0.000682
0.000687
0.000695
0.000693
0.000682
0.000664
0.000617
0.000627
0.000645
0.000698
0.000703
0.000708
0.000719
0.000714
0.000700
0.000727
0.000698
0.000706
0.000698
0.000732
0.000693
0.000711
0.000714
0.000706
0.000674
0.000674
0.000711
0.000698
0.000714
0.000732
0.000703
0.000716
0.000714
0.000685
0.000666
0.000677
0.000690
0.000669
0.000682
0.000682
0.000706
0.000711
0.000716
0.000719
0.000721
0.000698
0.000724
0.000698
0.000724
0.000727
0.000719
0.000732
0.000732
0.000711
0.000721
0.000727
0.000682
0.000674
0.000685
0.000687
0.000653
0.000661
0.000627
0.000609
0.000619
0.000672
0.000703
0.000672
0.000690
0.000719
0.000693
0.000711
0.000711
0.000732
0.000703
0.000690
0.000737
0.000716
0.000698
0.000716
0.000716
0.000719
0.000714
0.000669
0.000651
0.000674
0.000687
0.000672
0.000714
0.000711
0.000719
0.000737
0.000685
0.000698
0.000695
0.000727
0.000727
0.000714
0.000716
0.000708
0.000724
0.000719
0.000706
0.000703
0.000666
0.000716
0.000706
0.000624
0.000611
0.000601
0.000630
0.000677
0.000682
0.000685
0.000706
0.000711
0.000648
0.000614
0.000638
0.000651
0.000695
0.000693
0.000674
0.000682
0.000653
0.000643
0.000669
0.000685
0.000669
0.000698
0.000711
0.000711
0.000698
0.000703
0.000706
0.000727
0.000690
0.000617
0.000622
0.000674
0.000690
0.000695
0.000687
0.000703
0.000695
0.000672
0.000664
0.000640
0.000669
0.000679
0.000687
0.000698
0.000724
0.000724
0.000706
0.000721
0.000706
0.000706
0.000700
0.000703
0.000706
0.000687
0.000643
0.000700
0.000677
0.000666
0.000695
0.000708
0.000687
0.000632
0.000682
0.000690
0.000698
0.000682
0.000703
0.000698
0.000679
0.000703
0.000687
0.000687
0.000632
0.000611
0.000658
0.000658
0.000693
0.000693
0.000698
0.000711
0.000742
0.000761
0.000771
0.000745
0.000714
0.000643
0.000622
0.000619
0.000624
0.000611
0.000695
0.000740
0.000750
0.000790
0.000798
0.000753
0.000669
0.000611
0.000609
0.000672
0.000648
0.000664
0.000685
0.000674
0.000635
0.000653
0.000656
0.000682
0.000698
0.000740
0.000758
0.000735
0.000703
0.000672
0.000677
0.000672
0.000645
0.000658
0.000666
0.000664
0.000656
0.000714
0.000742
0.000795
0.000782
0.000748
0.000685
0.000606
0.000548
0.000543
0.000601
0.000643
0.000695
0.000719
0.000737
0.000721
0.000756
0.000834
0.000837
0.000824
0.000787
0.000708
0.000580
0.000514
0.000519
0.000540
0.000582
0.000635
0.000674
0.000635
0.000648
0.000651
0.000729
0.000816
0.000908
0.000944
0.000858
0.000732
0.000619
0.000540
0.000519
0.000519
0.000538
0.000451
0.000451
0.000464
0.000509
0.000596
0.000729
0.000882
0.000944
0.000937
0.000939
0.000884
0.000790
0.000724
0.000698
0.000695
0.000596
0.000519
0.000459
0.000354
0.000420
0.000556
0.000790
0.000973
0.001091
0.001078
0.000971
0.000887
0.000855
0.000842
0.000771
0.000742
0.000632
0.000530
0.000433
0.000414
0.000477
0.000603
0.000711
0.000745
0.000727
0.000721
0.000750
0.000782
0.000842
0.000900
0.000905
0.000821
0.000645
0.000409
0.000107
-0.000079
-0.000407
-0.001157
-0.002461
-0.004177
-0.006310
-0.008871
-0.011149
-0.012749
-0.014486
-0.016832
-0.018999
-0.020697
-0.022292
-0.023194
-0.023675
-0.024192
-0.024630
-0.024378
-0.023774
-0.023612
-0.023604
-0.023197
-0.023048
-0.023604
-0.023370
-0.022048
-0.021639
-0.021122
-0.020169
-0.019692
-0.019878
-0.020224
-0.020319
-0.019983
-0.019592
-0.019251
-0.018870
-0.018752
-0.017900
-0.016449
-0.015787
-0.016121
-0.016624
-0.016764
-0.016535
-0.015677
-0.014691
-0.014308
-0.014628
-0.014649
-0.013883
-0.012975
-0.012224
-0.011718
-0.011356
-0.011545
-0.011823
-0.011471
-0.010650
-0.010634
-0.011309
-0.011366
-0.011303
-0.011915
-0.012377
-0.011860
-0.011403
-0.011272
-0.010519
-0.009333
-0.009071
-0.009307
-0.008806
-0.008115
-0.008283
-0.008884
-0.009068
-0.009126
-0.009603
-0.009611
-0.009217
-0.008989
-0.009370
-0.009837
-0.009700
-0.009147
-0.009071
-0.008981
-0.008247
-0.007533
-0.007318
-0.007347
-0.007000
-0.006602
-0.006738
-0.007168
-0.007124
-0.006972
-0.007126
-0.007158
-0.006914
-0.006641
-0.006578
-0.006546
-0.006373
-0.006085
-0.005849
-0.005833
-0.006197
-0.006667
-0.006756
-0.006392
-0.006061
-0.006035
-0.005846
-0.005620
-0.005843
-0.006093
-0.006032
-0.005967
-0.006051
-0.005940
-0.005486
-0.005408
-0.005712
-0.005607
-0.005185
-0.005064
-0.005111
-0.004912
-0.004492
-0.004437
-0.004749
-0.004697
-0.004686
-0.005077
-0.005080
-0.004736
-0.004959
-0.005237
-0.004862
-0.004421
-0.004337
-0.004203
-0.003946
-0.003896
-0.003910
-0.003747
-0.004025
-0.004513
-0.004521
-0.004169
-0.004182
-0.004306
-0.004020
-0.003776
-0.003603
-0.003484
-0.003498
-0.003547
-0.003524
-0.003645
-0.003752
-0.003697
-0.003629
-0.003550
-0.003348
-0.003198
-0.003277
-0.003372
-0.003338
-0.003650
-0.004203
-0.004151
-0.003705
-0.003807
-0.004038
-0.003749
-0.003377
-0.003416
-0.003542
-0.003450
-0.003372
-0.003364
-0.003209
-0.002834
-0.002776
-0.003212
-0.003516
-0.003443
-0.003196
-0.003062
-0.003214
-0.003574
-0.003558
-0.003201
-0.002991
-0.003025
-0.003020
-0.002700
-0.002564
-0.002532
-0.002309
-0.002191
-0.002427
-0.002522
-0.002498
-0.002731
-0.003049
-0.002779
-0.002299
-0.002356
-0.002566
-0.002393
-0.002220
-0.002317
-0.002312
-0.002154
-0.002233
-0.002424
-0.002220
-0.002117
-0.002369
-0.002535
-0.002490
-0.002409
-0.002296
-0.002146
-0.002110
-0.002089
-0.001984
-0.001774
-0.001685
-0.001792
-0.001769
-0.001771
-0.002136
-0.002771
-0.003080
-0.002831
-0.002737
-0.002797
-0.002472
-0.002047
-0.001984
-0.001805
-0.001501
-0.001514
-0.001792
-0.001545
-0.001220
-0.001488
-0.001758
-0.001488
-0.001354
-0.001790
-0.002047
-0.001782
-0.001635
-0.001897
-0.001926
-0.001572
-0.001425
-0.001454
-0.001307
-0.001118
-0.001168
-0.001343
-0.001399
-0.001315
-0.001283
-0.001307
-0.001249
-0.001225
-0.001385
-0.001475
-0.001341
-0.001236
-0.001325
-0.001388
-0.001362
-0.001349
-0.001514
-0.001506
-0.001396
-0.001475
-0.001501
-0.001246
-0.001092
-0.001288
-0.001244
-0.001097
-0.001212
-0.001383
-0.001123
-0.000766
-0.001000
-0.001231
-0.001055
-0.000958
-0.001296
-0.001364
-0.001139
-0.001301
-0.001695
-0.001674
-0.001391
-0.001420
-0.001433
-0.001134
-0.000968
-0.001202
-0.001317
-0.001136
-0.000968
-0.000918
-0.000958
-0.001018
-0.001071
-0.001008
-0.000976
-0.000979
-0.000989
-0.000987
-0.001065
-0.001086
-0.000950
-0.000900
-0.000987
-0.000968
-0.000892
-0.000695
-0.000457
-0.000459
-0.000533
-0.000572
-0.000646
-0.000848
-0.001097
-0.001152
-0.001168
-0.001472
-0.001587
-0.001194
-0.000892
-0.000911
-0.000837
-0.000619
-0.000506
-0.000559
-0.000483
-0.000525
-0.000921
-0.001189
-0.001047
-0.000811
-0.000858
-0.000874
-0.000709
-0.000737
-0.000840
-0.000604
-0.000480
-0.000659
-0.000753
-0.000598
-0.000569
-0.000648
-0.000646
-0.000800
-0.001023
-0.000913
-0.000598
-0.000417
-0.000509
-0.000656
-0.000701
-0.000732
-0.000543
-0.000297
-0.000244
-0.000207
-0.000320
-0.000541
-0.000604
-0.000417
-0.000223
-0.000370
-0.000459
-0.000386
-0.000318
-0.000407
-0.000394
-0.000281
-0.000307
-0.000451
-0.000451
-0.000223
-0.000087
-0.000155
-0.000184
-0.000084
-0.000108
-0.000144
-0.000137
-0.000189
-0.000485
-0.000609
-0.000520
-0.000449
-0.000530
-0.000611
-0.000467
-0.000210
-0.000097
-0.000131
-0.000066
-0.000123
-0.000417
-0.000743
-0.000743
-0.000627
-0.000821
-0.000958
-0.000821
-0.000580
-0.000541
-0.000590
-0.000564
-0.000433
-0.000428
-0.000394
-0.000165
0.000034
0.000024
-0.000047
-0.000118
-0.000226
-0.000443
-0.000472
-0.000423
-0.000365
-0.000333
-0.000373
-0.000378
-0.000074
0.000136
0.000008
-0.000202
-0.000155
-0.000123
-0.000142
-0.000108
-0.000050
-0.000121
-0.000315
-0.000443
-0.000462
-0.000404
-0.000344
-0.000252
-0.000123
-0.000081
-0.000152
-0.000260
-0.000302
-0.000265
-0.000231
-0.000304
-0.000404
-0.000420
-0.000383
-0.000378
-0.000268
-0.000205
-0.000346
-0.000417
-0.000299
-0.000192
-0.000252
-0.000276
-0.000310
-0.000407
-0.000425
-0.000312
-0.000202
-0.000158
-0.000194
-0.000202
-0.000066
-0.000076
-0.000097
-0.000178
-0.000205
-0.000247
-0.000394
-0.000352
-0.000150
-0.000150
-0.000378
-0.000399
-0.000194
-0.000244
-0.000333
-0.000362
-0.000391
-0.000430
-0.000362
-0.000228
-0.000260
-0.000236
-0.000084
-0.000026
0.000052
0.000210
0.000304
0.000262
0.000144
0.000037
-0.000063
-0.000176
-0.000205
-0.000302
-0.000304
-0.000186
-0.000079
-0.000076
-0.000063
-0.000071
-0.000102
-0.000205
-0.000241
-0.000129
-0.000039
-0.000102
-0.000234
-0.000121
0.000060
-0.000071
-0.000205
-0.000126
-0.000021
-0.000126
-0.000116
0.000026
-0.000008
-0.000220
-0.000365
-0.000449
-0.000349
-0.000234
-0.000123
-0.000278
-0.000593
-0.000564
-0.000129
0.000089
0.000003
0.000084
0.000184
0.000081
-0.000199
-0.000270
-0.000320
-0.000407
-0.000278
0.000010
-0.000042
-0.000236
-0.000066
0.000228
0.000131
-0.000163
-0.000126
-0.000029
-0.000257
-0.000423
-0.000189
0.000005
0.000060
0.000131
0.000328
0.000414
0.000228
0.000168
0.000163
-0.000047
-0.000213
-0.000071
0.000079
0.000087
0.000089
0.000081
0.000039
-0.000058
-0.000116
0.000003
0.000079
0.000084
0.000079
0.000058
0.000008
0.000050
0.000215
0.000268
0.000165
0.000170
0.000286
0.000283
0.000207
0.000144
0.000066
-0.000087
-0.000197
-0.000165
-0.000089
-0.000116
-0.000160
-0.000018
0.000076
0.000026
0.000029
0.000052
0.000060
0.000071
0.000118
0.000110
0.000066
0.000013
0.000003
-0.000058
-0.000055
-0.000039
0.000063
0.000115
0.000042
0.000003
0.000029
0.000013
-0.000047
-0.000066
-0.000039
0.000034
0.000157
0.000115
0.000003
-0.000063
0.000094
0.000105
0.000087
0.000157
0.000131
0.000115
0.000087
0.000071
-0.000055
-0.000087
0.000021
0.000123
0.000107
-0.000003
0.000042
0.000128
0.000178
0.000105
-0.000026
-0.000032
0.000005
0.000066
0.000058
0.000149
0.000170
0.000165
0.000178
0.000170
0.000037
-0.000084
-0.000150
-0.000252
-0.000365
-0.000283
-0.000129
-0.000047
-0.000026
0.000110
0.000228
0.000220
0.000249
0.000223
0.000071
-0.000047
0.000010
0.000076
0.000087
0.000047
0.000076
0.000118
0.000178
0.000236
0.000304
0.000359
0.000420
0.000525
0.000449
0.000344
0.000346
0.000262
0.000220
0.000220
0.000239
0.000278
0.000236
0.000184
0.000087
0.000039
0.000160
0.000312
0.000370
0.000346
0.000333
0.000323
0.000294
0.000197
0.000094
0.000081
0.000194
0.000283
0.000323
0.000331
0.000393
0.000399
0.000265
0.000241
0.000278
0.000268
0.000252
0.000260
0.000317
0.000373
0.000304
0.000163
0.000089
0.000094
0.000228
0.000273
0.000260
0.000189
0.000149
0.000055
-0.000084
0.000031
0.000186
0.000149
0.000115
0.000186
0.000289
0.000260
0.000202
0.000278
0.000331
0.000252
0.000220
0.000315
0.000283
0.000226
0.000136
0.000149
0.000194
0.000128
0.000105
0.000231
0.000315
0.000220
0.000121
0.000281
0.000380
0.000365
0.000417
0.000459
0.000244
-0.000034
-0.000081
0.000045
0.000142
0.000113
0.000118
0.000317
0.000401
0.000375
0.000352
0.000331
0.000273
0.000155
0.000233
0.000291
0.000241
0.000254
0.000373
0.000391
0.000286
0.000265
0.000304
0.000205
0.000170
0.000233
0.000338
0.000331
0.000223
0.000244
0.000278
0.000273
0.000207
0.000349
0.000443
0.000302
0.000184
0.000205
0.000181
0.000016
-0.000029
0.000081
0.000113
0.000123
0.000320
0.000470
0.000422
0.000291
0.000257
0.000247
0.000139
0.000021
0.000021
0.000173
0.000126
0.000026
0.000039
0.000239
0.000367
0.000307
0.000241
0.000157
0.000131
0.000257
0.000380
0.000462
0.000399
0.000346
0.000289
0.000289
0.000380
0.000401
0.000331
0.000315
0.000354
0.000414
0.000480
0.000527
0.000525
0.000367
0.000257
0.000357
0.000420
0.000302
0.000079
-0.000037
0.000008
0.000034
0.000142
0.000281
0.000270
0.000223
0.000273
0.000352
0.000430
0.000433
0.000388
0.000268
0.000212
0.000265
0.000315
0.000289
0.000270
0.000281
0.000223
0.000257
0.000341
0.000375
0.000362
0.000299
0.000336
0.000265
0.000291
0.000349
0.000254
0.000063
0.000031
0.000168
0.000186
0.000191
0.000289
0.000375
0.000352
0.000310
0.000312
0.000367
0.000359
0.000357
0.000349
0.000370
0.000331
0.000346
0.000349
0.000312
0.000199
0.000207
0.000254
0.000257
0.000228
0.000262
0.000352
0.000333
0.000299
0.000173
-0.000092
-0.000053
0.000165
0.000346
0.000365
0.000393
0.000409
0.000404
0.000341
0.000296
0.000302
0.000289
0.000281
0.000299
0.000336
0.000344
0.000226
0.000136
0.000170
0.000178
0.000186
0.000244
0.000315
0.000278
0.000178
0.000136
0.000184
0.000257
0.000304
0.000336
0.000341
0.000357
0.000472
0.000425
0.000304
0.000270
0.000270
0.000273
0.000207
0.000289
0.000304
0.000226
0.000194
0.000273
0.000265
0.000144
0.000194
0.000241
0.000268
0.000310
0.000383
0.000399
0.000312
0.000336
0.000438
0.000488
0.000435
0.000380
0.000312
0.000215
0.000160
0.000328
0.000533
0.000546
0.000522
0.000438
0.000367
0.000247
0.000165
0.000121
0.000024
-0.000121
-0.000102
0.000060
0.000034
-0.000003
0.000163
0.000315
0.000333
0.000362
0.000491
0.000475
0.000375
0.000449
0.000522
0.000443
0.000386
0.000456
0.000373
0.000202
0.000220
0.000239
0.000184
0.000223
0.000338
0.000380
0.000378
0.000380
0.000331
0.000323
0.000236
0.000239
0.000273
0.000294
0.000199
-0.000003
0.000005
0.000160
0.000262
0.000375
0.000378
0.000388
0.000338
0.000354
0.000399
0.000504
0.000509
0.000488
0.000430
0.000386
0.000388
0.000375
0.000296
0.000226
0.000223
0.000370
0.000435
0.000433
0.000551
0.000543
0.000380
0.000362
0.000393
0.000349
0.000233
0.000270
0.000391
0.000338
0.000123
0.000134
0.000184
0.000115
0.000039
0.000199
0.000349
0.000380
0.000380
0.000475
0.000459
0.000354
0.000304
0.000380
0.000422
0.000462
0.000509
0.000580
0.000624
0.000609
0.000430
0.000283
0.000273
0.000317
0.000341
0.000430
0.000472
0.000378
0.000307
0.000428
0.000491
0.000407
0.000373
0.000441
0.000380
0.000273
0.000333
0.000435
0.000336
0.000286
0.000370
0.000396
0.000338
0.000373
0.000380
0.000333
0.000367
0.000467
0.000417
0.000352
0.000391
0.000467
0.000407
0.000323
0.000341
0.000323
0.000312
0.000310
0.000331
0.000446
0.000554
0.000480
0.000412
0.000294
0.000239
0.000307
0.000370
0.000433
0.000393
0.000388
0.000391
0.000323
0.000299
0.000262
0.000247
0.000310
0.000359
0.000333
0.000346
0.000388
0.000388
0.000354
0.000286
0.000249
0.000275
0.000265
0.000354
0.000407
0.000456
0.000422
0.000323
0.000391
0.000470
0.000451
0.000367
0.000346
0.000359
0.000383
0.000417
0.000517
0.000580
0.000475
0.000323
0.000315
0.000407
0.000375
0.000357
0.000488
0.000501
0.000317
0.000278
0.000388
0.000320
0.000134
0.000107
0.000142
0.000160
0.000244
0.000349
0.000370
0.000344
0.000380
0.000477
0.000509
0.000501
0.000533
0.000517
0.000459
0.000349
0.000199
0.000092
0.000118
0.000134
0.000178
0.000281
0.000470
0.000554
0.000551
0.000554
0.000472
0.000312
0.000218
0.000202
0.000076
0.000010
0.000160
0.000296
0.000275
0.000176
0.000157
0.000218
0.000323
0.000425
0.000496
0.000517
0.000548
0.000622
0.000648
0.000596
0.000590
0.000504
0.000496
0.000425
0.000420
0.000443
0.000417
0.000367
0.000393
0.000422
0.000451
0.000519
0.000509
0.000420
0.000273
0.000194
0.000260
0.000344
0.000412
0.000443
0.000456
0.000527
0.000556
0.000627
0.000640
0.000572
0.000546
0.000525
0.000527
0.000535
0.000422
0.000302
0.000359
0.000483
0.000443
0.000386
0.000352
0.000354
0.000393
0.000378
0.000359
0.000383
0.000449
0.000470
0.000425
0.000328
0.000380
0.000367
0.000302
0.000291
0.000315
0.000367
0.000438
0.000480
0.000467
0.000354
0.000257
0.000383
0.000462
0.000451
0.000338
0.000289
0.000291
0.000386
0.000480
0.000527
0.000530
0.000554
0.000546
0.000582
0.000588
0.000561
0.000446
0.000454
0.000428
0.000315
0.000275
0.000299
0.000325
0.000320
0.000244
0.000325
0.000393
0.000359
0.000349
0.000430
0.000446
0.000425
0.000449
0.000446
0.000383
0.000333
0.000341
0.000365
0.000331
0.000275
0.000362
0.000506
0.000512
0.000451
0.000438
0.000519
0.000580
0.000519
0.000475
0.000496
0.000512
0.000559
0.000590
0.000640
0.000598
0.000527
0.000498
0.000535
0.000451
0.000249
0.000220
0.000312
0.000268
0.000257
0.000373
0.000420
0.000375
0.000414
0.000546
0.000596
0.000624
0.000643
0.000619
0.000559
0.000485
0.000404
0.000257
0.000236
0.000344
0.000393
0.000349
0.000341
0.000459
0.000493
0.000454
0.000567
0.000614
0.000598
0.000572
0.000540
0.000391
0.000341
0.000435
0.000501
0.000425
0.000399
0.000464
0.000509
0.000569
0.000588
0.000535
0.000401
0.000467
0.000556
0.000543
0.000496
0.000512
0.000556
0.000556
0.000501
0.000454
0.000401
0.000252
0.000241
0.000333
0.000443
0.000464
0.000467
0.000509
0.000470
0.000488
0.000498
0.000472
0.000373
0.000265
0.000291
0.000378
0.000435
0.000470
0.000514
0.000525
0.000496
0.000551
0.000475
0.000409
0.000480
0.000546
0.000551
0.000556
0.000624
0.000561
0.000414
0.000349
0.000386
0.000378
0.000349
0.000462
0.000554
0.000546
0.000548
0.000485
0.000451
0.000480
0.000535
0.000548
0.000564
0.000522
0.000538
0.000564
0.000598
0.000577
0.000509
0.000412
0.000483
0.000485
0.000462
0.000454
0.000501
0.000580
0.000559
0.000509
0.000519
0.000491
0.000430
0.000446
0.000446
0.000344
0.000352
0.000441
0.000483
0.000417
0.000425
0.000430
0.000428
0.000533
0.000651
0.000677
0.000619
0.000648
0.000666
0.000630
0.000509
0.000446
0.000464
0.000514
0.000496
0.000519
0.000512
0.000543
0.000588
0.000512
0.000496
0.000546
0.000564
0.000580
0.000596
0.000598
0.000527
0.000501
0.000467
0.000433
0.000456
0.000556
0.000567
0.000559
0.000593
0.000530
0.000425
0.000380
0.000409
0.000428
0.000412
0.000477
0.000551
0.000590
0.000593
0.000572
0.000588
0.000498
0.000367
0.000399
0.000435
0.000401
0.000357
0.000393
0.000527
0.000543
0.000459
0.000451
0.000338
0.000231
0.000291
0.000396
0.000315
0.000328
0.000428
0.000409
0.000315
0.000420
0.000540
0.000485
0.000430
0.000556
0.000622
0.000519
0.000472
0.000396
0.000304
0.000239
0.000315
0.000404
0.000346
0.000378
0.000391
0.000407
0.000430
0.000443
0.000464
0.000430
0.000294
0.000252
0.000310
0.000281
0.000317
0.000441
0.000475
0.000414
0.000459
0.000648
0.000630
0.000564
0.000567
0.000598
0.000580
0.000585
0.000603
0.000632
0.000606
0.000577
0.000548
0.000496
0.000435
0.000493
0.000551
0.000577
0.000535
0.000611
0.000554
0.000441
0.000354
0.000254
0.000331
0.000456
0.000485
0.000506
0.000575
0.000653
0.000593
0.000477
0.000383
0.000378
0.000417
0.000477
0.000540
0.000535
0.000517
0.000527
0.000504
0.000538
0.000551
0.000596
0.000603
0.000617
0.000677
0.000679
0.000627
0.000601
0.000582
0.000543
0.000535
0.000588
0.000601
0.000582
0.000530
0.000527
0.000480
0.000483
0.000551
0.000519
0.000359
0.000375
0.000485
0.000485
0.000396
0.000470
0.000575
0.000496
0.000407
0.000441
0.000491
0.000414
0.000380
0.000459
0.000501
0.000441
0.000454
0.000564
0.000593
0.000519
0.000543
0.000522
0.000438
0.000441
0.000519
0.000540
0.000449
0.000491
0.000506
0.000404
0.000373
0.000428
0.000506
0.000488
0.000483
0.000491
0.000475
0.000509
0.000559
0.000543
0.000422
0.000333
0.000273
0.000359
0.000412
0.000433
0.000488
0.000548
0.000569
0.000585
0.000514
0.000464
0.000399
0.000278
0.000199
0.000275
0.000407
0.000344
0.000320
0.000404
0.000404
0.000346
0.000533
0.000580
0.000449
0.000417
0.000504
0.000530
0.000456
0.000504
0.000567
0.000525
0.000514
0.000556
0.000475
0.000320
0.000359
0.000449
0.000443
0.000399
0.000428
0.000438
0.000380
0.000349
0.000417
0.000456
0.000420
0.000378
0.000399
0.000475
0.000491
0.000491
0.000588
0.000656
0.000635
0.000609
0.000661
0.000651
0.000590
0.000554
0.000590
0.000554
0.000543
0.000577
0.000585
0.000543
0.000485
0.000509
0.000514
0.000559
0.000619
0.000619
0.000554
0.000498
0.000485
0.000512
0.000483
0.000435
0.000417
0.000462
0.000412
0.000388
0.000401
0.000407
0.000370
0.000401
0.000333
0.000262
0.000296
0.000367
0.000378
0.000331
0.000401
0.000517
0.000517
0.000493
0.000575
0.000598
0.000506
0.000512
0.000575
0.000606
0.000577
0.000535
0.000449
0.000433
0.000409
0.000441
0.000409
0.000365
0.000333
0.000441
0.000533
0.000546
0.000491
0.000459
0.000467
0.000477
0.000451
0.000412
0.000433
0.000496
0.000517
0.000561
0.000624
0.000672
0.000679
0.000672
0.000700
0.000672
0.000601
0.000575
0.000559
0.000488
0.000412
0.000278
0.000254
0.000333
0.000349
0.000409
0.000467
0.000504
0.000590
0.000627
0.000630
0.000577
0.000585
0.000588
0.000504
0.000438
0.000530
0.000619
0.000603
0.000617
0.000609
0.000577
0.000525
0.000517
0.000533
0.000575
0.000603
0.000575
0.000519
0.000451
0.000438
0.000451
0.000462
0.000462
0.000477
0.000554
0.000614
0.000661
0.000601
0.000428
0.000331
0.000401
0.000483
0.000493
0.000530
0.000627
0.000593
0.000551
0.000533
0.000548
0.000546
0.000462
0.000459
0.000399
0.000396
0.000480
0.000517
0.000506
0.000459
0.000514
0.000543
0.000546
0.000582
0.000603
0.000554
0.000575
0.000617
0.000638
0.000577
0.000512
0.000462
0.000425
0.000459
0.000506
0.000472
0.000378
0.000323
0.000317
0.000333
0.000367
0.000428
0.000538
0.000538
0.000459
0.000446
0.000498
0.000564
0.000449
0.000375
0.000438
0.000543
0.000569
0.000593
0.000640
0.000614
0.000556
0.000525
0.000480
0.000496
0.000543
0.000551
0.000504
0.000567
0.000548
0.000533
0.000590
0.000624
0.000554
0.000551
0.000577
0.000551
0.000357
0.000239
0.000378
0.000459
0.000438
0.000485
0.000535
0.000540
0.000514
0.000572
0.000645
0.000572
0.000551
0.000585
0.000512
0.000422
0.000464
0.000514
0.000388
0.000375
0.000517
0.000606
0.000645
0.000666
0.000742
0.000677
0.000588
0.000590
0.000601
0.000527
0.000559
0.000640
0.000590
0.000522
0.000548
0.000546
0.000472
0.000449
0.000449
0.000464
0.000464
0.000491
0.000593
0.000601
0.000575
0.000614
0.000564
0.000506
0.000491
0.000428
0.000422
0.000501
0.000540
0.000475
0.000485
0.000582
0.000635
0.000609
0.000580
0.000585
0.000575
0.000477
0.000462
0.000464
0.000475
0.000514
0.000496
0.000464
0.000433
0.000388
0.000412
0.000451
0.000477
0.000519
0.000548
0.000567
0.000603
0.000617
0.000596
0.000572
0.000590
0.000648
0.000632
0.000467
0.000477
0.000582
0.000525
0.000454
0.000483
0.000535
0.000483
0.000501
0.000519
0.000533
0.000514
0.000538
0.000546
0.000564
0.000603
0.000635
0.000543
0.000485
0.000467
0.000493
0.000517
0.000483
0.000475
0.000451
0.000488
0.000498
0.000527
0.000498
0.000501
0.000498
0.000619
0.000609
0.000598
0.000632
0.000672
0.000651
0.000567
0.000569
0.000475
0.000362
0.000386
0.000378
0.000275
0.000254
0.000420
0.000533
0.000417
0.000467
0.000643
0.000643
0.000538
0.000525
0.000538
0.000491
0.000428
0.000488
0.000519
0.000485
0.000477
0.000577
0.000648
0.000619
0.000580
0.000606
0.000619
0.000522
0.000517
0.000575
0.000593
0.000564
0.000561
0.000611
0.000664
0.000651
0.000603
0.000624
0.000588
0.000559
0.000538
0.000506
0.000449
0.000443
0.000430
0.000433
0.000475
0.000488
0.000472
0.000472
0.000540
0.000577
0.000603
0.000477
0.000396
0.000430
0.000420
0.000459
0.000472
0.000480
0.000470
0.000485
0.000551
0.000630
0.000525
0.000409
0.000399
0.000420
0.000428
0.000475
0.000546
0.000509
0.000367
0.000380
0.000456
0.000443
0.000467
0.000538
0.000554
0.000582
0.000577
0.000606
0.000611
0.000564
0.000590
0.000567
0.000580
0.000619
0.000609
0.000554
0.000514
0.000527
0.000561
0.000593
0.000617
0.000590
0.000559
0.000593
0.000580
0.000496
0.000441
0.000477
0.000493
0.000530
0.000590
0.000609
0.000593
0.000564
0.000548
0.000533
0.000572
0.000624
0.000588
0.000577
0.000517
0.000464
0.000459
0.000428
0.000472
0.000538
0.000491
0.000519
0.000556
0.000535
0.000564
0.000588
0.000609
0.000548
0.000533
0.000554
0.000509
0.000456
0.000501
0.000525
0.000535
0.000554
0.000535
0.000554
0.000509
0.000564
0.000624
0.000559
0.000525
0.000506
0.000462
0.000422
0.000456
0.000467
0.000477
0.000451
0.000551
0.000596
0.000527
0.000506
0.000588
0.000614
0.000577
0.000530
0.000517
0.000467
0.000451
0.000483
0.000483
0.000451
0.000546
0.000645
0.000682
0.000656
0.000635
0.000627
0.000530
0.000467
0.000509
0.000575
0.000561
0.000548
0.000498
0.000485
0.000498
0.000569
0.000575
0.000512
0.000543
0.000559
0.000593
0.000648
0.000669
0.000653
0.000588
0.000575
0.000580
0.000456
0.000433
0.000509
0.000517
0.000456
0.000512
0.000543
0.000582
0.000590
0.000530
0.000433
0.000475
0.000582
0.000651
0.000645
0.000638
0.000603
0.000514
0.000546
0.000606
0.000572
0.000493
0.000498
0.000491
0.000412
0.000391
0.000504
0.000533
0.000527
0.000572
0.000635
0.000624
0.000603
0.000630
0.000577
0.000543
0.000514
0.000522
0.000575
0.000593
0.000601
0.000577
0.000611
0.000638
0.000614
0.000611
0.000572
0.000640
0.000632
0.000624
0.000627
0.000548
0.000517
0.000554
0.000543
0.000498
0.000462
0.000527
0.000582
0.000559
0.000627
0.000700
0.000682
0.000598
0.000559
0.000496
0.000425
0.000456
0.000543
0.000561
0.000522
0.000559
0.000664
0.000564
0.000485
0.000517
0.000546
0.000498
0.000533
0.000640
0.000666
0.000601
0.000643
0.000658
0.000606
0.000519
0.000567
0.000624
0.000606
0.000614
0.000656
0.000614
0.000525
0.000506
0.000611
0.000614
0.000593
0.000630
0.000706
0.000658
0.000585
0.000630
0.000569
0.000535
0.000525
0.000459
0.000396
0.000428
0.000525
0.000546
0.000493
0.000472
0.000498
0.000454
0.000391
0.000480
0.000462
0.000425
0.000512
0.000590
0.000630
0.000533
0.000462
0.000533
0.000582
0.000551
0.000546
0.000559
0.000472
0.000388
0.000467
0.000548
0.000498
0.000493
0.000572
0.000619
0.000572
0.000567
0.000624
0.000677
0.000630
0.000590
0.000611
0.000551
0.000514
0.000506
0.000577
0.000567
0.000588
0.000580
0.000561
0.000509
0.000504
0.000559
0.000596
0.000590
0.000585
0.000606
0.000611
0.000606
0.000577
0.000543
0.000506
0.000517
0.000514
0.000540
0.000512
0.000496
0.000496
0.000456
0.000456
0.000491
0.000540
0.000596
0.000551
0.000530
0.000582
0.000596
0.000588
0.000601
0.000632
0.000575
0.000498
0.000488
0.000543
0.000606
0.000596
0.000598
0.000561
0.000538
0.000501
0.000512
0.000535
0.000598
0.000535
0.000569
0.000648
0.000706
0.000672
0.000643
0.000601
0.000614
0.000658
0.000640
0.000651
0.000666
0.000638
0.000653
0.000619
0.000622
0.000504
0.000338
0.000312
0.000399
0.000488
0.000533
0.000488
0.000543
0.000614
0.000624
0.000674
0.000653
0.000638
0.000624
0.000627
0.000658
0.000614
0.000480
0.000441
0.000517
0.000554
0.000525
0.000585
0.000648
0.000679
0.000648
0.000611
0.000601
0.000577
0.000580
0.000569
0.000569
0.000567
0.000559
0.000551
0.000504
0.000454
0.000430
0.000504
0.000624
0.000606
0.000617
0.000582
0.000601
0.000648
0.000706
0.000666
0.000627
0.000664
0.000666
0.000640
0.000593
0.000606
0.000640
0.000630
0.000648
0.000693
0.000638
0.000624
0.000606
0.000496
0.000393
0.000359
0.000386
0.000441
0.000540
0.000580
0.000640
0.000674
0.000687
0.000656
0.000611
0.000601
0.000559
0.000498
0.000517
0.000598
0.000624
0.000630
0.000617
0.000577
0.000559
0.000567
0.000554
0.000580
0.000504
0.000446
0.000556
0.000590
0.000617
0.000585
0.000567
0.000543
0.000533
0.000519
0.000575
0.000540
0.000551
0.000575
0.000551
0.000504
0.000475
0.000449
0.000548
0.000580
0.000522
0.000506
0.000543
0.000582
0.000577
0.000567
0.000619
0.000677
0.000648
0.000543
0.000459
0.000459
0.000498
0.000567
0.000577
0.000582
0.000569
0.000569
0.000585
0.000590
0.000569
0.000551
0.000577
0.000593
0.000630
0.000609
0.000619
0.000580
0.000459
0.000422
0.000525
0.000543
0.000556
0.000567
0.000501
0.000509
0.000561
0.000622
0.000645
0.000593
0.000611
0.000609
0.000561
0.000658
0.000703
0.000711
0.000669
0.000627
0.000630
0.000556
0.000590
0.000551
0.000441
0.000399
0.000399
0.000480
0.000551
0.000543
0.000449
0.000404
0.000496
0.000559
0.000496
0.000517
0.000572
0.000561
0.000556
0.000624
0.000648
0.000590
0.000501
0.000546
0.000601
0.000582
0.000611
0.000619
0.000561
0.000404
0.000349
0.000435
0.000538
0.000580
0.000575
0.000585
0.000630
0.000632
0.000611
0.000580
0.000519
0.000517
0.000601
0.000643
0.000661
0.000687
0.000648
0.000538
0.000485
0.000525
0.000543
0.000538
0.000590
0.000617
0.000575
0.000525
0.000596
0.000651
0.000477
0.000456
0.000543
0.000622
0.000582
0.000588
0.000640
0.000569
0.000480
0.000456
0.000554
0.000527
0.000462
0.000577
0.000674
0.000669
0.000669
0.000724
0.000708
0.000674
0.000651
0.000666
0.000619
0.000546
0.000577
0.000575
0.000551
0.000554
0.000585
0.000575
0.000561
0.000535
0.000477
0.000428
0.000514
0.000601
0.000614
0.000601
0.000561
0.000548
0.000601
0.000601
0.000593
0.000554
0.000564
0.000614
0.000698
0.000677
0.000632
0.000614
0.000619
0.000551
0.000504
0.000564
0.000651
0.000624
0.000630
0.000648
0.000596
0.000569
0.000593
0.000598
0.000535
0.000530
0.000572
0.000485
0.000477
0.000577
0.000611
0.000582
0.000624
0.000685
0.000627
0.000525
0.000512
0.000551
0.000556
0.000580
0.000630
0.000672
0.000666
0.000651
0.000598
0.000598
0.000624
0.000638
0.000598
0.000546
0.000517
0.000480
0.000485
0.000559
0.000543
0.000433
0.000404
0.000564
0.000640
0.000632
0.000672
0.000645
0.000648
0.000648
0.000614
0.000638
0.000666
0.000656
0.000648
0.000661
0.000653
0.000624
0.000601
0.000622
0.000564
0.000533
0.000546
0.000643
0.000645
0.000559
0.000543
0.000480
0.000543
0.000632
0.000627
0.000622
0.000661
0.000679
0.000661
0.000658
0.000658
0.000609
0.000564
0.000554
0.000582
0.000575
0.000554
0.000567
0.000614
0.000653
0.000596
0.000593
0.000567
0.000535
0.000527
0.000477
0.000517
0.000535
0.000509
0.000475
0.000527
0.000598
0.000624
0.000627
0.000611
0.000611
0.000601
0.000635
0.000638
0.000617
0.000506
0.000470
0.000533
0.000559
0.000519
0.000556
0.000619
0.000590
0.000572
0.000617
0.000651
0.000617
0.000561
0.000512
0.000519
0.000575
0.000643
0.000669
0.000653
0.000601
0.000622
0.000653
0.000661
0.000640
0.000598
0.000577
0.000645
0.000658
0.000588
0.000577
0.000540
0.000530
0.000506
0.000485
0.000493
0.000554
0.000596
0.000548
0.000554
0.000601
0.000622
0.000522
0.000498
0.000598
0.000622
0.000617
0.000651
0.000727
0.000672
0.000564
0.000575
0.000598
0.000504
0.000433
0.000412
0.000451
0.000519
0.000593
0.000643
0.000658
0.000666
0.000640
0.000535
0.000506
0.000585
0.000590
0.000551
0.000577
0.000596
0.000554
0.000554
0.000611
0.000611
0.000551
0.000519
0.000606
0.000661
0.000651
0.000664
0.000656
0.000687
0.000685
0.000685
0.000706
0.000651
0.000491
0.000441
0.000485
0.000569
0.000556
0.000572
0.000614
0.000643
0.000603
0.000606
0.000635
0.000598
0.000598
0.000632
0.000685
0.000614
0.000656
0.000632
0.000567
0.000472
0.000464
0.000386
0.000331
0.000435
0.000527
0.000464
0.000396
0.000438
0.000446
0.000362
0.000449
0.000603
0.000640
0.000661
0.000727
0.000742
0.000611
0.000504
0.000512
0.000533
0.000512
0.000501
0.000546
0.000669
0.000661
0.000640
0.000677
0.000643
0.000543
0.000501
0.000564
0.000609
0.000627
0.000638
0.000609
0.000580
0.000611
0.000567
0.000514
0.000467
0.000509
0.000546
0.000598
0.000645
0.000724
0.000674
0.000645
0.000611
0.000632
0.000614
0.000635
0.000706
0.000703
0.000679
0.000711
0.000693
0.000645
0.000598
0.000522
0.000501
0.000538
0.000540
0.000551
0.000577
0.000638
0.000619
0.000593
0.000643
0.000661
0.000682
0.000693
0.000669
0.000611
0.000603
0.000656
0.000669
0.000619
0.000580
0.000530
0.000498
0.000475
0.000480
0.000569
0.000611
0.000672
0.000658
0.000619
0.000622
0.000632
0.000658
0.000619
0.000551
0.000506
0.000530
0.000582
0.000632
0.000627
0.000648
0.000645
0.000651
0.000630
0.000590
0.000564
0.000569
0.000567
0.000535
0.000569
0.000601
0.000632
0.000627
0.000669
0.000645
0.000593
0.000635
0.000677
0.000609
0.000611
0.000632
0.000643
0.000656
0.000677
0.000677
0.000648
0.000622
0.000614
0.000640
0.000648
0.000656
0.000666
0.000682
0.000682
0.000664
0.000651
0.000640
0.000609
0.000593
0.000603
0.000572
0.000556
0.000653
0.000679
0.000590
0.000577
0.000630
0.000677
0.000635
0.000598
0.000661
0.000693
0.000669
0.000664
0.000653
0.000606
0.000540
0.000504
0.000512
0.000519
0.000527
0.000567
0.000611
0.000619
0.000593
0.000585
0.000577
0.000561
0.000527
0.000559
0.000635
0.000572
0.000519
0.000551
0.000535
0.000475
0.000535
0.000635
0.000630
0.000569
0.000645
0.000711
0.000656
0.000554
0.000548
0.000580
0.000645
0.000666
0.000664
0.000679
0.000588
0.000525
0.000498
0.000522
0.000609
0.000648
0.000640
0.000661
0.000656
0.000624
0.000593
0.000535
0.000554
0.000561
0.000512
0.000517
0.000577
0.000590
0.000548
0.000622
0.000653
0.000630
0.000614
0.000640
0.000627
0.000569
0.000569
0.000551
0.000551
0.000582
0.000687
0.000658
0.000575
0.000564
0.000622
0.000593
0.000609
0.000700
0.000748
0.000685
0.000687
0.000682
0.000596
0.000491
0.000582
0.000656
0.000648
0.000580
0.000611
0.000685
0.000682
0.000693
0.000693
0.000677
0.000645
0.000590
0.000530
0.000533
0.000590
0.000588
0.000601
0.000593
0.000585
0.000522
0.000422
0.000412
0.000472
0.000512
0.000614
0.000658
0.000695
0.000603
0.000498
0.000519
0.000556
0.000540
0.000533
0.000580
0.000564
0.000575
0.000627
0.000669
0.000638
0.000543
0.000551
0.000648
0.000653
0.000682
0.000653
0.000656
0.000609
0.000556
0.000603
0.000603
0.000617
0.000627
0.000656
0.000672
0.000598
0.000598
0.000638
0.000624
0.000614
0.000635
0.000593
0.000514
0.000509
0.000525
0.000496
0.000538
0.000596
0.000567
0.000501
0.000538
0.000596
0.000632
0.000611
0.000554
0.000588
0.000572
0.000577
0.000635
0.000580
0.000527
0.000480
0.000559
0.000640
0.000638
0.000614
0.000598
0.000512
0.000493
0.000577
0.000622
0.000638
0.000622
0.000672
0.000732
0.000656
0.000635
0.000661
0.000638
0.000638
0.000630
0.000664
0.000661
0.000651
0.000674
0.000677
0.000622
0.000674
0.000695
0.000651
0.000556
0.000483
0.000509
0.000517
0.000525
0.000585
0.000601
0.000590
0.000611
0.000653
0.000682
0.000582
0.000582
0.000672
0.000687
0.000690
0.000682
0.000732
0.000685
0.000661
0.000706
0.000674
0.000679
0.000690
0.000708
0.000729
0.000664
0.000556
0.000519
0.000577
0.000632
0.000658
0.000624
0.000645
0.000693
0.000693
0.000682
0.000679
0.000645
0.000630
0.000658
0.000669
0.000648
0.000614
0.000580
0.000575
0.000548
0.000540
0.000535
0.000598
0.000700
0.000674
0.000687
0.000693
0.000695
0.000661
0.000635
0.000656
0.000617
0.000585
0.000624
0.000645
0.000648
0.000624
0.000648
0.000651
0.000582
0.000630
0.000693
0.000656
0.000658
0.000716
0.000716
0.000611
0.000580
0.000606
0.000638
0.000619
0.000596
0.000535
0.000483
0.000556
0.000582
0.000525
0.000546
0.000669
0.000682
0.000669
0.000703
0.000685
0.000643
0.000632
0.000619
0.000561
0.000493
0.000538
0.000575
0.000643
0.000640
0.000590
0.000653
0.000643
0.000606
0.000606
0.000648
0.000627
0.000561
0.000514
0.000525
0.000598
0.000666
0.000679
0.000693
0.000729
0.000693
0.000658
0.000690
0.000614
0.000493
0.000504
0.000593
0.000651
0.000577
0.000582
0.000606
0.000635
0.000635
0.000700
0.000685
0.000653
0.000648
0.000651
0.000672
0.000609
0.000674
0.000724
0.000658
0.000585
0.000509
0.000414
0.000501
0.000561
0.000624
0.000640
0.000695
0.000679
0.000672
0.000698
0.000711
0.000617
0.000590
0.000622
0.000627
0.000598
0.000645
0.000672
0.000585
0.000577
0.000630
0.000627
0.000606
0.000580
0.000582
0.000572
0.000559
0.000603
0.000658
0.000622
0.000611
0.000658
0.000669
0.000679
0.000601
0.000640
0.000645
0.000619
0.000617
0.000640
0.000538
0.000498
0.000512
0.000561
0.000614
0.000588
0.000598
0.000619
0.000611
0.000601
0.000593
0.000572
0.000598
0.000582
0.000567
0.000582
0.000622
0.000661
0.000611
0.000572
0.000666
0.000682
0.000656
0.000619
0.000606
0.000572
0.000533
0.000538
0.000567
0.000519
0.000590
0.000624
0.000611
0.000609
0.000593
0.000569
0.000585
0.000619
0.000588
0.000585
0.000593
0.000590
0.000577
0.000580
0.000690
0.000695
0.000645
0.000638
0.000598
0.000548
0.000498
0.000512
0.000619
0.000672
0.000648
0.000700
0.000703
0.000617
0.000540
0.000498
0.000514
0.000580
0.000630
0.000632
0.000666
0.000630
0.000577
0.000533
0.000575
0.000582
0.000564
0.000606
0.000679
0.000700
0.000645
0.000648
0.000703
0.000687
0.000661
0.000703
0.000721
0.000695
0.000674
0.000661
0.000643
0.000590
0.000632
0.000674
0.000666
0.000669
0.000693
0.000677
0.000656
0.000679
0.000624
0.000651
0.000609
0.000611
0.000611
0.000611
0.000640
0.000635
0.000643
0.000677
0.000651
0.000672
0.000664
0.000695
0.000622
0.000609
0.000643
0.000601
0.000577
0.000648
0.000658
0.000609
0.000569
0.000588
0.000677
0.000656
0.000674
0.000685
0.000630
0.000580
0.000619
0.000638
0.000627
0.000569
0.000504
0.000488
0.000472
0.000467
0.000493
0.000530
0.000512
0.000512
0.000514
0.000609
0.000635
0.000640
0.000661
0.000682
0.000679
0.000653
0.000677
0.000651
0.000614
0.000622
0.000619
0.000635
0.000635
0.000630
0.000677
0.000687
0.000679
0.000695
0.000632
0.000580
0.000575
0.000577
0.000527
0.000551
0.000640
0.000656
0.000643
0.000685
0.000693
0.000685
0.000679
0.000719
0.000719
0.000687
0.000700
0.000703
0.000700
0.000638
0.000632
0.000677
0.000643
0.000603
0.000645
0.000672
0.000714
0.000695
0.000693
0.000651
0.000622
0.000658
0.000593
0.000603
0.000632
0.000580
0.000564
0.000661
0.000682
0.000682
0.000656
0.000727
0.000716
0.000706
0.000677
0.000677
0.000666
0.000614
0.000598
0.000577
0.000635
0.000564
0.000551
0.000598
0.000588
0.000496
0.000488
0.000577
0.000614
0.000548
0.000556
0.000601
0.000546
0.000488
0.000567
0.000606
0.000561
0.000617
0.000687
0.000656
0.000617
0.000645
0.000679
0.000661
0.000645
0.000698
0.000732
0.000664
0.000703
0.000703
0.000672
0.000590
0.000606
0.000611
0.000601
0.000598
0.000590
0.000661
0.000690
0.000672
0.000653
0.000640
0.000674
0.000666
0.000627
0.000651
0.000643
0.000630
0.000582
0.000640
0.000674
0.000679
0.000651
0.000679
0.000685
0.000690
0.000698
0.000653
0.000611
0.000580
0.000598
0.000614
0.000643
0.000643
0.000651
0.000674
0.000682
0.000679
0.000651
0.000590
0.000598
0.000658
0.000658
0.000577
0.000609
0.000661
0.000703
0.000651
0.000690
0.000708
0.000674
0.000645
0.000645
0.000658
0.000643
0.000632
0.000677
0.000656
0.000619
0.000630
0.000685
0.000656
0.000664
0.000674
0.000706
0.000719
0.000695
0.000685
0.000672
0.000648
0.000638
0.000582
0.000554
0.000535
0.000530
0.000561
0.000603
0.000609
0.000645
0.000672
0.000687
0.000698
0.000672
0.000677
0.000624
0.000538
0.000548
0.000535
0.000501
0.000438
0.000504
0.000601
0.000624
0.000567
0.000590
0.000645
0.000635
0.000593
0.000648
0.000679
0.000658
0.000690
0.000661
0.000674
0.000598
0.000588
0.000606
0.000635
0.000627
0.000653
0.000687
0.000656
0.000661
0.000669
0.000669
0.000632
0.000624
0.000661
0.000656
0.000630
0.000614
0.000635
0.000619
0.000635
0.000640
0.000682
0.000721
0.000682
0.000679
0.000593
0.000530
0.000559
0.000540
0.000470
0.000504
0.000580
0.000622
0.000590
0.000572
0.000577
0.000543
0.000582
0.000622
0.000572
0.000609
0.000645
0.000674
0.000666
0.000690
0.000700
0.000674
0.000632
0.000622
0.000635
0.000630
0.000685
0.000716
0.000700
0.000674
0.000669
0.000645
0.000630
0.000622
0.000635
0.000666
0.000687
0.000690
0.000714
0.000669
0.000603
0.000627
0.000593
0.000638
0.000656
0.000664
0.000619
0.000619
0.000687
0.000682
0.000677
0.000695
0.000711
0.000698
0.000674
0.000666
0.000693
0.000685
0.000706
0.000679
0.000624
0.000635
0.000638
0.000656
0.000596
0.000575
0.000588
0.000572
0.000540
0.000512
0.000551
0.000601
0.000624
0.000679
0.000703
0.000716
0.000700
0.000674
0.000679
0.000622
0.000585
0.000648
0.000658
0.000653
0.000640
0.000653
0.000645
0.000640
0.000656
0.000643
0.000567
0.000577
0.000575
0.000564
0.000580
0.000619
0.000653
0.000651
0.000700
0.000721
0.000719
0.000674
0.000627
0.000561
0.000575
0.000582
0.000648
0.000643
0.000582
0.000572
0.000585
0.000617
0.000519
0.000548
0.000656
0.000658
0.000630
0.000638
0.000664
0.000656
0.000635
0.000656
0.000635
0.000669
0.000679
0.000698
0.000703
0.000664
0.000627
0.000614
0.000658
0.000677
0.000674
0.000703
0.000700
0.000687
0.000614
0.000598
0.000624
0.000645
0.000619
0.000561
0.000598
0.000648
0.000653
0.000685
0.000693
0.000706
0.000656
0.000569
0.000619
0.000653
0.000664
0.000632
0.000632
0.000609
0.000559
0.000585
0.000614
0.000611
0.000596
0.000596
0.000666
0.000661
0.000624
0.000572
0.000598
0.000645
0.000617
0.000582
0.000648
0.000664
0.000693
0.000677
0.000614
0.000527
0.000459
0.000525
0.000609
0.000596
0.000643
0.000721
0.000695
0.000693
0.000679
0.000672
0.000658
0.000622
0.000603
0.000596
0.000519
0.000519
0.000580
0.000567
0.000556
0.000622
0.000682
0.000698
0.000714
0.000708
0.000706
0.000611
0.000617
0.000658
0.000656
0.000651
0.000661
0.000698
0.000651
0.000630
0.000677
0.000664
0.000632
0.000679
0.000687
0.000672
0.000719
0.000690
0.000687
0.000666
0.000672
0.000674
0.000648
0.000706
0.000685
0.000716
0.000708
0.000714
0.000727
0.000677
0.000653
0.000640
0.000645
0.000635
0.000632
0.000690
0.000580
0.000551
0.000619
0.000658
0.000651
0.000645
0.000653
0.000622
0.000556
0.000582
0.000645
0.000687
0.000672
0.000666
0.000685
0.000682
0.000614
0.000624
0.000698
0.000687
0.000658
0.000664
0.000658
0.000627
0.000609
0.000658
0.000630
0.000645
0.000679
0.000685
0.000698
0.000700
0.000695
0.000685
0.000627
0.000575
0.000603
0.000627
0.000653
0.000656
0.000682
0.000672
0.000632
0.000664
0.000724
0.000714
0.000661
0.000606
0.000635
0.000577
0.000569
0.000627
0.000661
0.000622
0.000664
0.000693
0.000674
0.000640
0.000677
0.000687
0.000596
0.000551
0.000577
0.000577
0.000598
0.000590
0.000601
0.000609
0.000601
0.000635
0.000658
0.000635
0.000572
0.000509
0.000575
0.000609
0.000651
0.000638
0.000645
0.000698
0.000735
0.000719
0.000711
0.000672
0.000693
0.000627
0.000645
0.000630
0.000669
0.000693
0.000664
0.000695
0.000664
0.000617
0.000567
0.000561
0.000640
0.000622
0.000622
0.000622
0.000580
0.000580
0.000627
0.000661
0.000740
0.000698
0.000721
0.000687
0.000703
0.000661
0.000622
0.000590
0.000590
0.000564
0.000624
0.000656
0.000643
0.000669
0.000677
0.000685
0.000672
0.000677
0.000719
0.000630
0.000669
0.000674
0.000677
0.000679
0.000672
0.000698
0.000721
0.000685
0.000651
0.000624
0.000619
0.000661
0.000653
0.000664
0.000735
0.000674
0.000614
0.000567
0.000624
0.000664
0.000669
0.000693
0.000682
0.000606
0.000624
0.000635
0.000643
0.000643
0.000656
0.000695
0.000703
0.000685
0.000729
0.000769
0.000690
0.000672
0.000648
0.000624
0.000624
0.000656
0.000693
0.000674
0.000609
0.000630
0.000690
0.000687
0.000679
0.000648
0.000635
0.000661
0.000669
0.000632
0.000627
0.000622
0.000632
0.000645
0.000651
0.000690
0.000656
0.000664
0.000672
0.000635
0.000627
0.000653
0.000706
0.000690
0.000698
0.000690
0.000687
0.000640
0.000588
0.000588
0.000611
0.000617
0.000638
0.000695
0.000711
0.000706
0.000695
0.000737
0.000729
0.000677
0.000640
0.000682
0.000724
0.000724
0.000677
0.000698
0.000677
0.000658
0.000672
0.000708
0.000677
0.000640
0.000585
0.000556
0.000588
0.000596
0.000561
0.000593
0.000679
0.000685
0.000666
0.000703
0.000732
0.000716
0.000682
0.000651
0.000643
0.000575
0.000617
0.000682
0.000687
0.000672
0.000721
0.000719
0.000643
0.000627
0.000596
0.000577
0.000577
0.000614
0.000679
0.000648
0.000624
0.000645
0.000622
0.000619
0.000617
0.000666
0.000690
0.000693
0.000735
0.000693
0.000711
0.000719
0.000700
0.000719
0.000698
0.000653
0.000674
0.000645
0.000685
0.000687
0.000661
0.000677
0.000698
0.000703
0.000674
0.000596
0.000551
0.000569
0.000551
0.000609
0.000661
0.000664
0.000624
0.000543
0.000582
0.000648
0.000693
0.000685
0.000724
0.000711
0.000711
0.000679
0.000645
0.000627
0.000685
0.000690
0.000672
0.000653
0.000674
0.000648
0.000617
0.000664
0.000706
0.000698
0.000677
0.000661
0.000609
0.000596
0.000580
0.000617
0.000666
0.000661
0.000677
0.000700
0.000719
0.000737
0.000727
0.000711
0.000724
0.000693
0.000690
0.000698
0.000695
0.000695
0.000711
0.000700
0.000719
0.000740
0.000716
0.000719
0.000716
0.000695
0.000682
0.000690
0.000661
0.000624
0.000638
0.000679
0.000695
0.000693
0.000661
0.000632
0.000635
0.000619
0.000661
0.000640
0.000627
0.000630
0.000624
0.000606
0.000593
0.000609
0.000643
0.000638
0.000630
0.000674
0.000669
0.000640
0.000635
0.000672
0.000679
0.000664
0.000672
0.000664
0.000679
0.000651
0.000721
0.000698
0.000627
0.000679
0.000700
0.000677
0.000638
0.000664
0.000619
0.000611
0.000640
0.000656
0.000658
0.000664
0.000687
0.000674
0.000632
0.000661
0.000690
0.000703
0.000666
0.000661
0.000666
0.000677
0.000735
0.000695
0.000695
0.000695
0.000708
0.000687
0.000677
0.000669
0.000622
0.000651
0.000672
