Start time = 18:17:39.007140
End time = 18:17:48.960310
laser_energy = 6.010
channel_1_dial = 850
channel_2_dial = 850
channel_3_dial = 850
channel_4_dial = 850
NG-1-LII = 0
NG-3-15399 = 0
NG-4-LII = 0
NG-4-15399 = 0
NG-5-LII = 0
NG-5-15399 = 0
NG-9-LII = 0
NG-9-15399 = 0
NG-10-01 = 0
NG-11-15399 = 0
NG-12-15399 = 0
NG-4A-2001 = 0
NG-4B-2001 = 0
NG-5A-2001 = 0
NG-3-2001 = 0
NG-5B-2001 = 0
NG-1-2001 = 0
NG-9-2001 = 0
NG-10-2001 = 0
NG-11-2001 = 0
NG-12-2001 = 0
AND-200SN09 = 0
AND-100SN09 = 0
AND-050SN09 = 0
AND-030SN09 = 0
AND-015SN05 = 0
PMT#1Voltage = 0
PMT#2Voltage = 0
t0(sec) = 0.000000E+0
dt(sec) = 4.000000E-10
F1:INSP "
DESCRIPTOR_NAME    : WAVEDESC           
TEMPLATE_NAME      : LECROY_2_3         
COMM_TYPE          : word               
COMM_ORDER         : HIFIRST            
WAVE_DESCRIPTOR    : 346                
USER_TEXT          : 0                  
RES_DESC1          : 0                  
TRIGTIME_ARRAY     : 0                  
RIS_TIME_ARRAY     : 0                  
RES_ARRAY1         : 0                  
WAVE_ARRAY_1       : 10002              
WAVE_ARRAY_2       : 0                  
RES_ARRAY2         : 0                  
RES_ARRAY3         : 0                  
INSTRUMENT_NAME    : LECROYHDO6104      
INSTRUMENT_NUMBER  : 6308               
TRACE_LABEL        :                    
RESERVED1          : 5001               
RESERVED2          : 0                  
WAVE_ARRAY_COUNT   : 5001               
PNTS_PER_SCREEN    : 5000               
FIRST_VALID_PNT    : 0                  
LAST_VALID_PNT     : 5000               
FIRST_POINT        : 0                  
SPARSING_FACTOR    : 1                  
SEGMENT_INDEX      : 0                  
SUBARRAY_COUNT     : 1                  
SWEEPS_PER_ACQ     : 200                
POINTS_PER_PAIR    : 0                  
PAIR_OFFSET        : 0                  
VERTICAL_GAIN      : 2.6238e-006        
VERTICAL_OFFSET    : 6.5501e-002        
MAX_VALUE          : 3.0816e+004        
MIN_VALUE          : 1.3388e+004        
NOMINAL_BITS       : 16                 
NOM_SUBARRAY_COUNT : 1                  
HORIZ_INTERVAL     : 4.0000e-010        
HORIZ_OFFSET       : -2.00000000e-007   
PIXEL_OFFSET       : -2.00000000e-007   
VERTUNIT           : Unit Name = V
HORUNIT            : Unit Name = S
HORIZ_UNCERTAINTY  : 1.0000e-012        
TRIGGER_TIME       : Date = APR 17, 2024, Time = 19:17:34.858259610
ACQ_DURATION       : 1.0049e+001        
RECORD_TYPE        : single_sweep       
PROCESSING_DONE    : no_processing      
RESERVED5          : 0                  
RIS_SWEEPS         : 1                  
TIMEBASE           : 200_ns/div         
VERT_COUPLING      : DC_50_Ohms         
PROBE_ATT          : 1.0000e+000        
FIXED_VERT_GAIN    : 5_mV/div           
BANDWIDTH_LIMIT    : off                
VERTICAL_VERNIER   : 1.1600e+000        
ACQ_VERT_OFFSET    : 0.0000e+000        
WAVE_SOURCE        : UNKNOWN            
"
0.000231
0.000241
0.000226
0.000202
0.000226
0.000239
0.000189
0.000199
0.000223
0.000228
0.000202
0.000210
0.000218
0.000210
0.000181
0.000218
0.000228
0.000247
0.000194
0.000207
0.000226
0.000220
0.000207
0.000220
0.000249
0.000270
0.000202
0.000215
0.000239
0.000236
0.000194
0.000207
0.000202
0.000191
0.000160
0.000168
0.000186
0.000205
0.000165
0.000149
0.000202
0.000205
0.000149
0.000218
0.000241
0.000226
0.000212
0.000262
0.000236
0.000260
0.000218
0.000239
0.000233
0.000210
0.000191
0.000202
0.000194
0.000199
0.000207
0.000197
0.000189
0.000226
0.000210
0.000223
0.000205
0.000241
0.000205
0.000226
0.000210
0.000228
0.000202
0.000218
0.000202
0.000194
0.000170
0.000191
0.000186
0.000194
0.000207
0.000202
0.000186
0.000223
0.000184
0.000202
0.000197
0.000205
0.000207
0.000199
0.000168
0.000207
0.000210
0.000218
0.000202
0.000231
0.000205
0.000226
0.000210
0.000244
0.000226
0.000207
0.000218
0.000233
0.000207
0.000197
0.000215
0.000231
0.000199
0.000212
0.000178
0.000223
0.000178
0.000202
0.000210
0.000233
0.000220
0.000228
0.000231
0.000252
0.000241
0.000239
0.000231
0.000257
0.000205
0.000226
0.000233
0.000241
0.000210
0.000194
0.000199
0.000231
0.000186
0.000173
0.000189
0.000205
0.000160
0.000181
0.000176
0.000194
0.000181
0.000181
0.000212
0.000254
0.000215
0.000252
0.000247
0.000241
0.000220
0.000207
0.000223
0.000228
0.000212
0.000202
0.000189
0.000218
0.000189
0.000194
0.000205
0.000220
0.000215
0.000202
0.000207
0.000241
0.000194
0.000220
0.000210
0.000205
0.000218
0.000191
0.000170
0.000226
0.000199
0.000207
0.000220
0.000215
0.000218
0.000228
0.000215
0.000254
0.000207
0.000228
0.000220
0.000202
0.000194
0.000220
0.000218
0.000223
0.000226
0.000239
0.000218
0.000254
0.000215
0.000244
0.000260
0.000247
0.000210
0.000236
0.000212
0.000236
0.000226
0.000197
0.000233
0.000226
0.000199
0.000207
0.000220
0.000223
0.000189
0.000202
0.000186
0.000207
0.000199
0.000207
0.000205
0.000239
0.000220
0.000218
0.000233
0.000241
0.000218
0.000228
0.000241
0.000228
0.000189
0.000210
0.000218
0.000220
0.000199
0.000218
0.000228
0.000231
0.000210
0.000205
0.000207
0.000239
0.000226
0.000215
0.000228
0.000223
0.000197
0.000215
0.000220
0.000215
0.000170
0.000173
0.000218
0.000202
0.000197
0.000239
0.000218
0.000205
0.000173
0.000157
0.000157
0.000170
0.000139
0.000168
0.000170
0.000191
0.000205
0.000197
0.000202
0.000233
0.000197
0.000220
0.000207
0.000210
0.000207
0.000215
0.000176
0.000176
0.000186
0.000176
0.000199
0.000218
0.000210
0.000239
0.000205
0.000210
0.000228
0.000218
0.000191
0.000265
0.000220
0.000241
0.000260
0.000218
0.000228
0.000239
0.000207
0.000228
0.000228
0.000205
0.000228
0.000210
0.000191
0.000218
0.000189
0.000199
0.000186
0.000189
0.000186
0.000215
0.000186
0.000186
0.000218
0.000233
0.000239
0.000241
0.000223
0.000228
0.000210
0.000184
0.000207
0.000197
0.000163
0.000178
0.000186
0.000199
0.000176
0.000186
0.000168
0.000212
0.000199
0.000212
0.000210
0.000226
0.000215
0.000218
0.000236
0.000252
0.000197
0.000205
0.000220
0.000212
0.000197
0.000197
0.000210
0.000197
0.000178
0.000173
0.000202
0.000226
0.000199
0.000226
0.000223
0.000215
0.000202
0.000207
0.000197
0.000233
0.000210
0.000197
0.000186
0.000218
0.000197
0.000218
0.000210
0.000239
0.000215
0.000173
0.000194
0.000223
0.000173
0.000210
0.000218
0.000197
0.000205
0.000210
0.000215
0.000244
0.000205
0.000197
0.000228
0.000210
0.000199
0.000212
0.000226
0.000223
0.000212
0.000197
0.000223
0.000244
0.000202
0.000191
0.000220
0.000184
0.000155
0.000160
0.000176
0.000189
0.000184
0.000178
0.000194
0.000205
0.000170
0.000194
0.000194
0.000202
0.000186
0.000202
0.000223
0.000281
0.000212
0.000247
0.000228
0.000220
0.000220
0.000252
0.000249
0.000244
0.000205
0.000181
0.000170
0.000152
0.000168
0.000228
0.000218
0.000239
0.000231
0.000197
0.000226
0.000231
0.000189
0.000189
0.000226
0.000202
0.000218
0.000257
0.000247
0.000262
0.000199
0.000220
0.000233
0.000223
0.000215
0.000286
0.000273
0.000260
0.000223
0.000181
0.000131
0.000168
0.000144
0.000170
0.000157
0.000189
0.000226
0.000270
0.000275
0.000283
0.000273
0.000226
0.000184
0.000144
0.000144
0.000152
0.000176
0.000223
0.000207
0.000218
0.000149
0.000218
0.000236
0.000220
0.000252
0.000275
0.000244
0.000205
0.000160
0.000178
0.000144
0.000168
0.000178
0.000239
0.000231
0.000191
0.000202
0.000205
0.000210
0.000205
0.000184
0.000223
0.000218
0.000194
0.000202
0.000223
0.000239
0.000231
0.000215
0.000278
0.000291
0.000268
0.000275
0.000241
0.000152
0.000131
0.000139
0.000149
0.000147
0.000134
0.000160
0.000215
0.000152
0.000108
0.000157
0.000215
0.000215
0.000320
0.000394
0.000414
0.000391
0.000373
0.000349
0.000317
0.000215
0.000189
0.000136
0.000121
0.000031
0.000055
0.000037
0.000089
0.000108
0.000152
0.000191
0.000254
0.000241
0.000312
0.000325
0.000310
0.000265
0.000239
0.000262
0.000197
0.000144
0.000184
0.000207
0.000241
0.000223
0.000241
0.000231
0.000244
0.000307
0.000328
0.000349
0.000352
0.000294
0.000296
0.000257
0.000254
0.000189
0.000165
0.000134
0.000073
0.000039
0.000005
0.000037
0.000037
-0.000003
-0.000074
-0.000260
-0.000454
-0.000829
-0.001443
-0.002107
-0.002891
-0.003778
-0.004815
-0.005956
-0.006985
-0.007908
-0.008761
-0.009475
-0.009986
-0.010112
-0.010225
-0.010372
-0.010419
-0.010398
-0.010298
-0.010191
-0.009950
-0.009653
-0.009359
-0.009063
-0.008861
-0.008874
-0.008900
-0.008748
-0.008596
-0.008430
-0.008310
-0.007927
-0.007546
-0.007145
-0.006720
-0.006371
-0.006224
-0.006213
-0.006226
-0.006203
-0.005909
-0.005681
-0.005513
-0.005379
-0.005227
-0.005111
-0.005001
-0.004928
-0.004899
-0.004928
-0.004878
-0.004870
-0.004878
-0.004922
-0.005025
-0.005074
-0.005098
-0.005143
-0.005148
-0.005156
-0.005127
-0.005043
-0.005046
-0.005082
-0.005043
-0.005025
-0.004998
-0.004991
-0.004959
-0.004956
-0.004883
-0.004893
-0.004901
-0.004880
-0.004788
-0.004676
-0.004563
-0.004503
-0.004416
-0.004337
-0.004232
-0.004167
-0.003970
-0.003847
-0.003752
-0.003652
-0.003603
-0.003540
-0.003492
-0.003505
-0.003600
-0.003645
-0.003618
-0.003605
-0.003545
-0.003461
-0.003387
-0.003440
-0.003448
-0.003356
-0.003275
-0.003159
-0.003094
-0.002954
-0.002905
-0.002978
-0.002910
-0.002839
-0.002789
-0.002829
-0.002839
-0.002910
-0.002965
-0.003059
-0.002994
-0.002912
-0.002836
-0.002857
-0.002889
-0.002975
-0.003007
-0.002978
-0.002897
-0.002815
-0.002739
-0.002739
-0.002647
-0.002574
-0.002543
-0.002558
-0.002592
-0.002577
-0.002655
-0.002784
-0.002821
-0.002787
-0.002815
-0.002855
-0.002771
-0.002721
-0.002595
-0.002480
-0.002403
-0.002335
-0.002317
-0.002327
-0.002361
-0.002348
-0.002380
-0.002372
-0.002293
-0.002186
-0.002094
-0.002034
-0.001918
-0.001905
-0.001913
-0.001976
-0.001910
-0.001934
-0.001900
-0.001902
-0.002005
-0.002086
-0.002186
-0.002354
-0.002501
-0.002587
-0.002577
-0.002569
-0.002464
-0.002377
-0.002228
-0.002115
-0.002083
-0.001981
-0.001897
-0.001879
-0.001826
-0.001813
-0.001805
-0.001834
-0.001866
-0.001871
-0.001876
-0.001926
-0.001879
-0.001766
-0.001727
-0.001711
-0.001669
-0.001674
-0.001769
-0.001902
-0.001994
-0.002007
-0.002010
-0.001999
-0.002007
-0.002031
-0.002023
-0.001965
-0.001921
-0.001855
-0.001682
-0.001569
-0.001543
-0.001530
-0.001451
-0.001501
-0.001545
-0.001603
-0.001640
-0.001721
-0.001805
-0.001847
-0.001863
-0.001934
-0.001892
-0.001897
-0.001845
-0.001774
-0.001666
-0.001616
-0.001530
-0.001469
-0.001438
-0.001388
-0.001359
-0.001364
-0.001364
-0.001448
-0.001545
-0.001595
-0.001664
-0.001671
-0.001656
-0.001669
-0.001619
-0.001561
-0.001522
-0.001503
-0.001459
-0.001451
-0.001388
-0.001406
-0.001401
-0.001425
-0.001422
-0.001490
-0.001425
-0.001399
-0.001322
-0.001275
-0.001220
-0.001252
-0.001304
-0.001341
-0.001315
-0.001338
-0.001375
-0.001427
-0.001427
-0.001438
-0.001427
-0.001454
-0.001501
-0.001601
-0.001640
-0.001666
-0.001577
-0.001459
-0.001354
-0.001273
-0.001254
-0.001238
-0.001270
-0.001275
-0.001254
-0.001236
-0.001265
-0.001294
-0.001307
-0.001343
-0.001294
-0.001257
-0.001207
-0.001102
-0.001042
-0.001008
-0.000968
-0.000937
-0.000892
-0.000887
-0.000850
-0.000816
-0.000782
-0.000800
-0.000832
-0.000911
-0.000994
-0.001068
-0.001157
-0.001220
-0.001273
-0.001359
-0.001459
-0.001498
-0.001454
-0.001380
-0.001357
-0.001296
-0.001178
-0.001120
-0.001086
-0.001026
-0.000994
-0.001084
-0.001057
-0.001089
-0.001071
-0.001065
-0.001089
-0.001105
-0.001102
-0.001152
-0.001199
-0.001157
-0.001136
-0.001134
-0.001107
-0.001105
-0.001031
-0.001078
-0.001071
-0.001078
-0.001099
-0.001113
-0.001068
-0.001026
-0.001002
-0.000973
-0.000887
-0.000861
-0.000845
-0.000855
-0.000848
-0.000829
-0.000858
-0.000882
-0.000905
-0.000942
-0.000984
-0.001110
-0.001152
-0.001155
-0.001118
-0.001194
-0.001113
-0.001005
-0.000918
-0.000887
-0.000842
-0.000819
-0.000853
-0.000908
-0.000934
-0.001031
-0.001071
-0.001165
-0.001176
-0.001155
-0.001165
-0.001223
-0.001207
-0.001165
-0.001170
-0.001189
-0.001084
-0.001018
-0.000960
-0.000921
-0.000829
-0.000800
-0.000750
-0.000737
-0.000740
-0.000745
-0.000727
-0.000750
-0.000806
-0.000829
-0.000819
-0.000848
-0.000869
-0.000858
-0.000850
-0.000966
-0.001039
-0.001081
-0.001065
-0.001105
-0.001026
-0.000987
-0.000924
-0.000908
-0.000850
-0.000813
-0.000803
-0.000879
-0.000882
-0.000890
-0.000803
-0.000756
-0.000722
-0.000659
-0.000640
-0.000701
-0.000769
-0.000819
-0.000876
-0.000929
-0.001029
-0.001105
-0.001078
-0.001057
-0.000926
-0.000832
-0.000729
-0.000674
-0.000669
-0.000685
-0.000609
-0.000564
-0.000572
-0.000604
-0.000577
-0.000635
-0.000669
-0.000719
-0.000753
-0.000834
-0.000869
-0.000890
-0.000908
-0.000882
-0.000869
-0.000840
-0.000769
-0.000743
-0.000708
-0.000695
-0.000640
-0.000622
-0.000627
-0.000614
-0.000575
-0.000643
-0.000693
-0.000706
-0.000785
-0.000882
-0.000874
-0.000911
-0.000924
-0.000874
-0.000853
-0.000871
-0.000869
-0.000853
-0.000811
-0.000753
-0.000687
-0.000617
-0.000548
-0.000506
-0.000457
-0.000530
-0.000551
-0.000533
-0.000546
-0.000567
-0.000538
-0.000522
-0.000499
-0.000512
-0.000509
-0.000583
-0.000593
-0.000643
-0.000761
-0.000816
-0.000819
-0.000806
-0.000816
-0.000803
-0.000693
-0.000659
-0.000590
-0.000512
-0.000464
-0.000470
-0.000493
-0.000512
-0.000538
-0.000564
-0.000609
-0.000698
-0.000727
-0.000777
-0.000769
-0.000790
-0.000753
-0.000735
-0.000743
-0.000779
-0.000711
-0.000729
-0.000758
-0.000740
-0.000667
-0.000601
-0.000504
-0.000425
-0.000430
-0.000504
-0.000577
-0.000659
-0.000706
-0.000682
-0.000682
-0.000653
-0.000619
-0.000627
-0.000638
-0.000548
-0.000493
-0.000530
-0.000572
-0.000577
-0.000685
-0.000737
-0.000653
-0.000583
-0.000506
-0.000533
-0.000525
-0.000520
-0.000493
-0.000520
-0.000483
-0.000485
-0.000527
-0.000572
-0.000604
-0.000672
-0.000632
-0.000680
-0.000677
-0.000667
-0.000669
-0.000677
-0.000656
-0.000638
-0.000651
-0.000661
-0.000625
-0.000643
-0.000596
-0.000567
-0.000506
-0.000480
-0.000459
-0.000467
-0.000430
-0.000399
-0.000404
-0.000462
-0.000454
-0.000493
-0.000535
-0.000535
-0.000527
-0.000538
-0.000554
-0.000559
-0.000491
-0.000488
-0.000443
-0.000430
-0.000415
-0.000454
-0.000480
-0.000491
-0.000485
-0.000538
-0.000512
-0.000538
-0.000614
-0.000611
-0.000580
-0.000617
-0.000646
-0.000619
-0.000614
-0.000622
-0.000601
-0.000635
-0.000593
-0.000583
-0.000522
-0.000506
-0.000417
-0.000381
-0.000357
-0.000354
-0.000315
-0.000331
-0.000339
-0.000370
-0.000373
-0.000428
-0.000472
-0.000462
-0.000483
-0.000522
-0.000559
-0.000583
-0.000564
-0.000554
-0.000556
-0.000520
-0.000514
-0.000551
-0.000572
-0.000569
-0.000562
-0.000585
-0.000625
-0.000596
-0.000567
-0.000533
-0.000449
-0.000360
-0.000370
-0.000373
-0.000346
-0.000396
-0.000399
-0.000472
-0.000467
-0.000462
-0.000499
-0.000480
-0.000446
-0.000464
-0.000443
-0.000441
-0.000425
-0.000402
-0.000346
-0.000370
-0.000344
-0.000331
-0.000323
-0.000341
-0.000362
-0.000394
-0.000464
-0.000533
-0.000546
-0.000530
-0.000501
-0.000533
-0.000499
-0.000485
-0.000422
-0.000425
-0.000402
-0.000318
-0.000276
-0.000244
-0.000223
-0.000192
-0.000257
-0.000312
-0.000381
-0.000441
-0.000488
-0.000556
-0.000520
-0.000514
-0.000488
-0.000493
-0.000491
-0.000485
-0.000496
-0.000522
-0.000504
-0.000509
-0.000470
-0.000451
-0.000409
-0.000362
-0.000386
-0.000404
-0.000399
-0.000394
-0.000386
-0.000404
-0.000352
-0.000336
-0.000315
-0.000339
-0.000396
-0.000391
-0.000425
-0.000441
-0.000441
-0.000402
-0.000383
-0.000396
-0.000352
-0.000318
-0.000325
-0.000386
-0.000391
-0.000381
-0.000367
-0.000331
-0.000349
-0.000286
-0.000339
-0.000394
-0.000367
-0.000407
-0.000412
-0.000475
-0.000496
-0.000543
-0.000562
-0.000554
-0.000535
-0.000501
-0.000480
-0.000459
-0.000391
-0.000373
-0.000289
-0.000278
-0.000223
-0.000205
-0.000215
-0.000220
-0.000184
-0.000215
-0.000223
-0.000239
-0.000281
-0.000328
-0.000367
-0.000441
-0.000483
-0.000496
-0.000491
-0.000506
-0.000417
-0.000388
-0.000315
-0.000297
-0.000278
-0.000249
-0.000213
-0.000276
-0.000304
-0.000315
-0.000312
-0.000318
-0.000307
-0.000323
-0.000302
-0.000349
-0.000375
-0.000394
-0.000346
-0.000367
-0.000336
-0.000331
-0.000297
-0.000336
-0.000373
-0.000354
-0.000333
-0.000339
-0.000310
-0.000304
-0.000294
-0.000352
-0.000373
-0.000402
-0.000378
-0.000412
-0.000422
-0.000415
-0.000422
-0.000446
-0.000443
-0.000467
-0.000443
-0.000430
-0.000383
-0.000360
-0.000344
-0.000365
-0.000336
-0.000273
-0.000265
-0.000302
-0.000273
-0.000249
-0.000247
-0.000286
-0.000283
-0.000304
-0.000323
-0.000360
-0.000344
-0.000373
-0.000388
-0.000441
-0.000512
-0.000501
-0.000496
-0.000522
-0.000433
-0.000357
-0.000357
-0.000310
-0.000304
-0.000297
-0.000239
-0.000302
-0.000291
-0.000291
-0.000297
-0.000252
-0.000247
-0.000226
-0.000241
-0.000273
-0.000297
-0.000325
-0.000375
-0.000407
-0.000428
-0.000443
-0.000373
-0.000373
-0.000344
-0.000273
-0.000228
-0.000171
-0.000155
-0.000129
-0.000105
-0.000176
-0.000189
-0.000234
-0.000215
-0.000239
-0.000205
-0.000241
-0.000276
-0.000325
-0.000367
-0.000362
-0.000378
-0.000365
-0.000349
-0.000370
-0.000333
-0.000365
-0.000399
-0.000320
-0.000294
-0.000291
-0.000249
-0.000244
-0.000144
-0.000184
-0.000231
-0.000236
-0.000213
-0.000283
-0.000336
-0.000354
-0.000383
-0.000346
-0.000328
-0.000304
-0.000278
-0.000320
-0.000396
-0.000407
-0.000375
-0.000370
-0.000315
-0.000344
-0.000278
-0.000297
-0.000257
-0.000226
-0.000152
-0.000150
-0.000118
-0.000095
-0.000097
-0.000139
-0.000155
-0.000189
-0.000234
-0.000307
-0.000341
-0.000349
-0.000375
-0.000349
-0.000294
-0.000289
-0.000307
-0.000339
-0.000299
-0.000239
-0.000194
-0.000184
-0.000121
-0.000144
-0.000189
-0.000189
-0.000194
-0.000210
-0.000213
-0.000239
-0.000262
-0.000255
-0.000257
-0.000255
-0.000215
-0.000192
-0.000220
-0.000192
-0.000163
-0.000181
-0.000189
-0.000207
-0.000163
-0.000131
-0.000152
-0.000123
-0.000118
-0.000142
-0.000157
-0.000192
-0.000189
-0.000168
-0.000186
-0.000202
-0.000202
-0.000213
-0.000247
-0.000231
-0.000255
-0.000236
-0.000160
-0.000192
-0.000131
-0.000121
-0.000160
-0.000150
-0.000089
-0.000089
-0.000074
-0.000063
-0.000105
-0.000126
-0.000131
-0.000160
-0.000168
-0.000215
-0.000241
-0.000249
-0.000318
-0.000281
-0.000257
-0.000270
-0.000273
-0.000236
-0.000252
-0.000268
-0.000286
-0.000312
-0.000260
-0.000262
-0.000255
-0.000207
-0.000163
-0.000155
-0.000121
-0.000105
-0.000131
-0.000199
-0.000226
-0.000247
-0.000234
-0.000265
-0.000260
-0.000255
-0.000220
-0.000210
-0.000239
-0.000260
-0.000202
-0.000192
-0.000181
-0.000136
-0.000116
-0.000113
-0.000147
-0.000105
-0.000097
-0.000123
-0.000136
-0.000105
-0.000092
-0.000123
-0.000081
-0.000066
-0.000071
-0.000084
-0.000084
-0.000123
-0.000097
-0.000131
-0.000123
-0.000102
-0.000105
-0.000123
-0.000121
-0.000136
-0.000171
-0.000207
-0.000205
-0.000194
-0.000223
-0.000231
-0.000192
-0.000129
-0.000100
-0.000165
-0.000144
-0.000197
-0.000178
-0.000192
-0.000178
-0.000152
-0.000081
-0.000136
-0.000205
-0.000194
-0.000176
-0.000192
-0.000178
-0.000171
-0.000150
-0.000152
-0.000134
-0.000116
-0.000121
-0.000205
-0.000192
-0.000226
-0.000210
-0.000202
-0.000155
-0.000100
-0.000105
-0.000110
-0.000139
-0.000165
-0.000197
-0.000226
-0.000289
-0.000349
-0.000336
-0.000367
-0.000333
-0.000331
-0.000244
-0.000168
-0.000157
-0.000121
-0.000100
-0.000116
-0.000134
-0.000118
-0.000100
-0.000139
-0.000129
-0.000081
-0.000100
-0.000150
-0.000155
-0.000136
-0.000144
-0.000171
-0.000163
-0.000150
-0.000126
-0.000160
-0.000157
-0.000165
-0.000168
-0.000181
-0.000165
-0.000108
-0.000095
-0.000110
-0.000139
-0.000181
-0.000150
-0.000181
-0.000168
-0.000142
-0.000136
-0.000199
-0.000252
-0.000241
-0.000286
-0.000283
-0.000291
-0.000228
-0.000207
-0.000228
-0.000197
-0.000163
-0.000131
-0.000181
-0.000197
-0.000157
-0.000147
-0.000189
-0.000220
-0.000236
-0.000241
-0.000244
-0.000168
-0.000152
-0.000129
-0.000131
-0.000155
-0.000100
-0.000087
-0.000055
-0.000060
-0.000066
-0.000087
-0.000081
-0.000074
-0.000079
-0.000089
-0.000123
-0.000129
-0.000152
-0.000116
-0.000126
-0.000121
-0.000102
-0.000105
-0.000084
-0.000081
-0.000081
-0.000045
-0.000055
-0.000105
-0.000087
-0.000097
-0.000129
-0.000155
-0.000165
-0.000147
-0.000157
-0.000171
-0.000136
-0.000116
-0.000095
-0.000157
-0.000192
-0.000197
-0.000189
-0.000218
-0.000199
-0.000160
-0.000136
-0.000123
-0.000131
-0.000105
-0.000081
-0.000066
-0.000063
-0.000024
-0.000003
-0.000042
-0.000032
-0.000063
-0.000105
-0.000144
-0.000152
-0.000113
-0.000168
-0.000181
-0.000205
-0.000213
-0.000252
-0.000255
-0.000231
-0.000234
-0.000228
-0.000192
-0.000163
-0.000142
-0.000126
-0.000126
-0.000118
-0.000129
-0.000102
-0.000113
-0.000102
-0.000105
-0.000163
-0.000189
-0.000205
-0.000213
-0.000260
-0.000255
-0.000234
-0.000202
-0.000207
-0.000186
-0.000186
-0.000147
-0.000186
-0.000186
-0.000171
-0.000168
-0.000157
-0.000095
-0.000108
-0.000084
-0.000095
-0.000058
-0.000013
-0.000003
-0.000032
-0.000034
-0.000113
-0.000110
-0.000163
-0.000152
-0.000118
-0.000081
-0.000118
-0.000110
-0.000095
-0.000050
-0.000047
-0.000084
-0.000092
-0.000126
-0.000168
-0.000184
-0.000150
-0.000100
-0.000142
-0.000139
-0.000087
-0.000045
-0.000102
-0.000118
-0.000129
-0.000118
-0.000134
-0.000092
-0.000081
-0.000074
-0.000110
-0.000089
-0.000136
-0.000150
-0.000152
-0.000131
-0.000102
-0.000081
-0.000081
-0.000068
-0.000066
-0.000074
-0.000110
-0.000079
-0.000081
-0.000087
-0.000105
-0.000129
-0.000126
-0.000134
-0.000202
-0.000160
-0.000144
-0.000102
-0.000116
-0.000071
-0.000047
-0.000029
-0.000032
0.000021
0.000026
0.000039
0.000042
0.000016
-0.000011
-0.000005
-0.000026
-0.000011
-0.000016
-0.000042
-0.000081
-0.000087
-0.000084
-0.000089
-0.000095
-0.000063
-0.000100
-0.000089
-0.000102
-0.000108
-0.000113
-0.000129
-0.000126
-0.000123
-0.000100
-0.000084
-0.000084
-0.000097
-0.000092
-0.000053
-0.000060
-0.000032
-0.000018
-0.000013
-0.000016
-0.000013
-0.000026
-0.000026
-0.000013
-0.000016
-0.000068
-0.000063
-0.000081
-0.000071
-0.000081
-0.000068
-0.000102
-0.000121
-0.000116
-0.000079
-0.000100
-0.000081
-0.000081
-0.000129
-0.000129
-0.000102
-0.000081
-0.000055
-0.000045
-0.000042
-0.000066
-0.000013
-0.000037
-0.000050
-0.000105
-0.000074
-0.000095
-0.000071
-0.000032
0.000029
0.000003
0.000010
0.000031
-0.000024
-0.000039
-0.000071
-0.000118
-0.000110
-0.000168
-0.000147
-0.000108
-0.000100
-0.000084
-0.000029
0.000008
0.000021
-0.000032
-0.000063
-0.000029
-0.000018
-0.000024
-0.000000
0.000013
0.000016
-0.000042
-0.000039
-0.000071
-0.000050
-0.000045
-0.000063
-0.000024
0.000008
-0.000003
0.000005
0.000016
0.000045
0.000016
0.000034
0.000052
0.000076
0.000055
0.000079
0.000052
0.000071
0.000050
0.000045
0.000016
-0.000026
-0.000050
-0.000050
-0.000068
-0.000063
-0.000060
-0.000116
-0.000063
-0.000005
-0.000029
-0.000026
-0.000055
-0.000063
-0.000076
-0.000050
-0.000037
0.000031
0.000031
0.000037
0.000047
0.000068
0.000066
0.000037
0.000005
-0.000011
-0.000063
-0.000045
-0.000074
-0.000042
-0.000016
-0.000016
-0.000008
0.000050
0.000008
0.000018
0.000013
0.000034
-0.000005
0.000026
0.000034
0.000105
0.000092
0.000092
0.000121
0.000105
0.000092
0.000097
0.000060
0.000092
0.000068
0.000034
0.000034
0.000003
-0.000029
-0.000013
0.000008
0.000031
0.000031
0.000029
0.000021
0.000021
-0.000013
-0.000013
-0.000016
0.000010
-0.000032
-0.000008
-0.000003
0.000003
0.000008
0.000010
-0.000005
0.000016
-0.000018
-0.000037
-0.000018
-0.000034
-0.000032
-0.000039
-0.000058
-0.000089
-0.000123
-0.000092
-0.000100
-0.000079
-0.000060
-0.000055
-0.000063
-0.000032
-0.000050
-0.000018
0.000008
0.000039
0.000008
-0.000021
-0.000053
-0.000024
-0.000029
-0.000021
-0.000026
-0.000026
-0.000058
-0.000084
-0.000055
-0.000058
-0.000032
0.000042
-0.000003
0.000047
0.000047
0.000058
0.000058
0.000050
0.000024
0.000066
0.000076
0.000105
0.000089
0.000073
0.000029
0.000018
-0.000034
-0.000068
-0.000084
-0.000066
-0.000071
-0.000084
-0.000063
-0.000055
-0.000058
-0.000024
-0.000011
0.000034
-0.000024
-0.000008
-0.000029
0.000013
-0.000016
-0.000032
0.000003
-0.000034
-0.000079
-0.000045
-0.000039
-0.000042
-0.000071
-0.000084
-0.000079
-0.000021
-0.000045
-0.000037
0.000003
0.000026
0.000003
0.000029
0.000060
0.000045
0.000005
0.000039
0.000042
0.000039
0.000026
0.000050
0.000055
0.000047
0.000066
0.000068
0.000055
0.000055
-0.000016
-0.000055
-0.000081
-0.000084
-0.000123
-0.000066
-0.000047
-0.000013
-0.000037
-0.000034
-0.000021
-0.000032
-0.000008
0.000058
0.000039
0.000063
0.000063
0.000055
0.000045
0.000024
-0.000018
-0.000029
-0.000100
-0.000081
-0.000118
-0.000147
-0.000126
-0.000089
-0.000058
-0.000034
-0.000008
-0.000003
0.000016
0.000005
-0.000011
-0.000011
-0.000037
-0.000032
-0.000037
0.000018
0.000010
0.000013
0.000042
0.000071
0.000013
0.000050
0.000050
0.000108
0.000045
0.000055
0.000042
0.000021
0.000034
0.000055
0.000087
0.000097
0.000066
0.000066
0.000066
0.000076
0.000034
0.000037
0.000029
0.000047
0.000021
0.000045
0.000016
0.000016
-0.000037
-0.000008
-0.000000
0.000010
-0.000008
-0.000058
-0.000047
-0.000037
-0.000047
-0.000024
-0.000000
0.000005
-0.000013
-0.000000
0.000010
0.000037
0.000047
0.000071
0.000042
0.000024
-0.000011
0.000008
0.000037
0.000042
0.000026
-0.000005
-0.000037
-0.000032
-0.000071
-0.000032
-0.000008
0.000037
0.000039
0.000050
0.000076
0.000102
0.000068
0.000060
0.000066
0.000039
-0.000011
0.000018
0.000045
0.000039
0.000066
0.000089
0.000066
0.000071
0.000060
0.000055
0.000047
0.000058
0.000047
0.000076
0.000071
0.000079
0.000087
0.000089
0.000089
0.000102
0.000042
0.000084
0.000066
0.000034
0.000037
0.000042
0.000016
0.000018
0.000024
0.000050
0.000003
0.000031
-0.000011
0.000010
-0.000016
-0.000013
-0.000008
-0.000011
0.000045
0.000087
0.000087
0.000073
0.000102
0.000087
0.000050
0.000097
0.000115
0.000134
0.000102
0.000089
0.000058
0.000047
0.000008
-0.000005
-0.000037
-0.000005
-0.000016
-0.000042
-0.000005
0.000008
-0.000034
-0.000029
0.000063
0.000076
0.000068
0.000115
0.000121
0.000121
0.000068
0.000079
0.000079
0.000094
0.000081
0.000097
0.000073
0.000118
0.000092
0.000100
0.000094
0.000129
0.000097
0.000087
0.000068
0.000087
0.000045
0.000029
0.000045
0.000045
0.000026
0.000060
0.000102
0.000126
0.000102
0.000115
0.000076
0.000052
0.000037
0.000042
0.000060
0.000071
0.000010
0.000008
0.000003
-0.000016
-0.000055
0.000005
-0.000016
-0.000021
-0.000018
-0.000018
0.000008
-0.000003
0.000029
0.000042
0.000021
0.000008
0.000029
0.000063
0.000037
0.000050
0.000021
0.000010
0.000055
0.000045
0.000087
0.000089
0.000108
0.000126
0.000108
0.000089
0.000068
0.000068
0.000037
0.000063
0.000034
0.000016
0.000013
0.000024
0.000024
0.000037
0.000010
0.000037
0.000010
0.000055
0.000024
0.000042
0.000079
0.000097
0.000060
0.000071
0.000076
0.000055
0.000039
0.000029
0.000042
0.000063
0.000071
0.000066
0.000076
0.000118
0.000058
0.000076
0.000102
0.000121
0.000071
0.000039
0.000066
0.000060
0.000024
0.000013
0.000055
0.000060
0.000066
0.000063
0.000066
0.000063
0.000052
0.000039
0.000031
0.000063
0.000042
0.000039
0.000039
0.000055
0.000034
0.000052
0.000071
0.000068
0.000052
0.000034
0.000066
0.000071
0.000010
0.000050
0.000031
0.000073
0.000084
0.000108
0.000123
0.000144
0.000102
0.000087
0.000089
0.000094
0.000042
0.000063
0.000066
0.000079
0.000060
0.000063
0.000092
0.000042
0.000016
0.000060
0.000013
0.000047
0.000081
0.000097
0.000097
0.000123
0.000123
0.000115
0.000092
0.000081
0.000087
0.000089
0.000129
0.000131
0.000113
0.000149
0.000134
0.000113
0.000060
0.000047
0.000060
0.000079
0.000113
0.000115
0.000092
0.000134
0.000084
0.000092
0.000118
0.000110
0.000094
0.000073
0.000084
0.000121
0.000092
0.000073
0.000102
0.000102
0.000079
0.000060
0.000026
0.000066
0.000058
0.000076
0.000063
0.000081
0.000089
0.000066
0.000055
0.000084
0.000073
0.000063
0.000060
0.000115
0.000094
0.000092
0.000063
0.000071
0.000037
0.000055
0.000055
0.000108
0.000097
0.000105
0.000060
0.000100
0.000063
0.000058
0.000071
0.000068
0.000097
0.000089
0.000039
0.000076
0.000029
0.000039
0.000052
0.000063
0.000073
0.000092
0.000089
0.000118
0.000121
0.000110
0.000063
0.000071
0.000068
0.000079
0.000097
0.000152
0.000131
0.000108
0.000110
0.000089
0.000089
0.000108
0.000100
0.000139
0.000115
0.000108
0.000139
0.000115
0.000097
0.000118
0.000087
0.000121
0.000121
0.000108
0.000113
0.000147
0.000110
0.000076
0.000071
0.000045
0.000026
0.000029
0.000042
0.000055
0.000026
0.000066
0.000076
0.000047
-0.000013
0.000013
-0.000005
-0.000003
-0.000005
0.000008
0.000003
0.000050
0.000026
0.000008
0.000005
0.000010
-0.000026
-0.000021
0.000031
0.000047
0.000063
0.000105
0.000108
0.000115
0.000068
0.000063
0.000018
0.000039
0.000042
0.000024
0.000024
0.000068
0.000060
0.000047
0.000087
0.000081
0.000052
0.000052
0.000047
0.000063
0.000066
0.000073
0.000097
0.000042
0.000008
0.000055
0.000029
0.000060
0.000100
0.000102
0.000097
0.000126
0.000123
0.000102
0.000129
0.000092
0.000066
0.000031
-0.000011
0.000024
-0.000021
0.000021
0.000047
0.000058
0.000066
0.000089
0.000079
0.000087
0.000118
0.000129
0.000100
0.000170
0.000142
0.000149
0.000134
0.000100
0.000081
0.000060
0.000066
0.000087
0.000073
0.000076
0.000079
0.000100
0.000105
0.000100
0.000076
0.000066
0.000089
0.000079
0.000063
0.000089
0.000063
0.000060
0.000042
0.000052
0.000066
0.000071
0.000039
0.000050
0.000034
0.000050
0.000087
0.000139
0.000123
0.000152
0.000126
0.000094
0.000084
0.000092
0.000055
0.000094
0.000089
0.000076
0.000063
0.000102
0.000050
0.000066
0.000047
0.000113
0.000079
0.000081
0.000079
0.000092
0.000045
0.000063
0.000071
0.000055
0.000024
0.000058
0.000063
0.000073
0.000073
0.000031
0.000068
0.000084
0.000013
0.000050
0.000094
0.000123
0.000079
0.000079
0.000118
0.000100
0.000092
0.000121
0.000136
0.000139
0.000139
0.000160
0.000160
0.000168
0.000129
0.000129
0.000113
0.000126
0.000097
0.000102
0.000113
0.000131
0.000100
0.000092
0.000129
0.000136
0.000079
0.000092
0.000089
0.000081
0.000071
0.000071
0.000079
0.000092
0.000084
0.000084
0.000089
0.000097
0.000087
0.000102
0.000136
0.000123
0.000092
0.000097
0.000047
0.000087
0.000026
0.000055
0.000066
0.000060
0.000047
0.000050
0.000071
0.000076
0.000052
0.000079
0.000094
0.000123
0.000113
0.000089
0.000123
0.000168
0.000102
0.000142
0.000139
0.000129
0.000076
0.000071
0.000087
0.000076
0.000073
0.000113
0.000094
0.000134
0.000118
0.000118
0.000110
0.000160
0.000118
0.000105
0.000110
0.000134
0.000100
0.000118
0.000165
0.000152
0.000089
0.000079
0.000047
0.000063
0.000060
0.000081
0.000063
0.000089
0.000084
0.000102
0.000063
0.000068
0.000113
0.000110
0.000105
0.000142
0.000092
0.000058
0.000087
0.000081
0.000068
0.000068
0.000087
0.000118
0.000084
0.000142
0.000121
0.000094
0.000113
0.000081
0.000081
0.000102
0.000087
0.000087
0.000060
0.000097
0.000087
0.000084
0.000113
0.000097
0.000076
0.000094
0.000102
0.000063
0.000052
0.000071
0.000050
0.000068
0.000052
0.000105
0.000084
0.000139
0.000126
0.000121
0.000129
0.000152
0.000115
0.000071
0.000087
0.000115
0.000071
0.000129
0.000121
0.000136
0.000123
0.000071
0.000071
0.000102
0.000108
0.000102
0.000118
0.000144
0.000136
0.000136
0.000152
0.000207
0.000134
0.000108
0.000092
0.000113
0.000076
0.000097
0.000102
0.000084
0.000073
0.000071
0.000113
0.000123
0.000110
0.000126
0.000118
0.000139
0.000087
0.000073
0.000115
0.000152
0.000123
0.000108
0.000102
0.000076
0.000055
0.000063
0.000066
0.000063
0.000097
0.000102
0.000118
0.000155
0.000131
0.000163
0.000168
0.000168
0.000126
0.000087
0.000052
0.000076
0.000071
0.000081
0.000084
0.000102
0.000021
0.000029
0.000058
0.000073
0.000087
0.000126
0.000160
0.000155
0.000134
0.000136
0.000089
0.000079
0.000066
0.000029
0.000031
0.000060
0.000042
0.000031
0.000039
0.000076
0.000055
0.000097
0.000110
0.000115
0.000110
0.000115
0.000100
0.000105
0.000105
0.000142
0.000123
0.000144
0.000155
0.000168
0.000149
0.000165
0.000134
0.000108
0.000118
0.000139
0.000092
0.000126
0.000100
0.000079
0.000052
0.000021
0.000047
0.000066
0.000029
0.000047
0.000073
0.000097
0.000087
0.000079
0.000063
0.000073
0.000108
0.000097
0.000094
0.000149
0.000123
0.000131
0.000144
0.000157
0.000126
0.000089
0.000060
0.000089
0.000055
0.000097
0.000105
0.000142
0.000139
0.000121
0.000126
0.000142
0.000105
0.000105
0.000097
0.000105
0.000079
0.000052
0.000079
0.000092
0.000063
0.000081
0.000073
0.000084
0.000068
0.000123
0.000147
0.000165
0.000160
0.000134
0.000136
0.000165
0.000155
0.000160
0.000181
0.000202
0.000165
0.000131
0.000139
0.000126
0.000097
0.000147
0.000129
0.000149
0.000157
0.000147
0.000160
0.000165
0.000134
0.000134
0.000113
0.000126
0.000084
0.000071
0.000076
0.000108
0.000076
0.000081
0.000079
0.000092
0.000110
0.000084
0.000073
0.000102
0.000066
0.000052
0.000084
0.000118
0.000118
0.000134
0.000108
0.000144
0.000149
0.000155
0.000163
0.000199
0.000142
0.000168
0.000160
0.000186
0.000157
0.000123
0.000113
0.000123
0.000089
0.000102
0.000097
0.000136
0.000115
0.000110
0.000105
0.000100
0.000084
0.000105
0.000139
0.000176
0.000144
0.000157
0.000157
0.000173
0.000102
0.000121
0.000142
0.000108
0.000081
0.000100
0.000115
0.000121
0.000084
0.000108
0.000118
0.000147
0.000110
0.000123
0.000189
0.000139
0.000139
0.000118
0.000121
0.000155
0.000123
0.000144
0.000165
0.000176
0.000136
0.000118
0.000089
0.000092
0.000063
0.000068
0.000094
0.000079
0.000076
0.000081
0.000108
0.000115
0.000089
0.000121
0.000108
0.000136
0.000110
0.000105
0.000139
0.000147
0.000089
0.000142
0.000134
0.000139
0.000126
0.000131
0.000131
0.000121
0.000102
0.000129
0.000136
0.000100
0.000092
0.000123
0.000087
0.000152
0.000100
0.000115
0.000108
0.000139
0.000155
0.000147
0.000147
0.000144
0.000108
0.000110
0.000097
0.000087
0.000108
0.000079
0.000076
0.000079
0.000068
0.000079
0.000076
0.000147
0.000142
0.000126
0.000126
0.000152
0.000115
0.000152
0.000147
0.000168
0.000184
0.000165
0.000144
0.000152
0.000142
0.000134
0.000121
0.000121
0.000113
0.000108
0.000115
0.000155
0.000139
0.000113
0.000118
0.000139
0.000108
0.000115
0.000149
0.000184
0.000152
0.000160
0.000160
0.000149
0.000123
0.000129
0.000113
0.000144
0.000094
0.000115
0.000113
0.000168
0.000131
0.000123
0.000160
0.000178
0.000105
0.000097
0.000105
0.000113
0.000113
0.000147
0.000163
0.000176
0.000149
0.000155
0.000210
0.000210
0.000191
0.000184
0.000165
0.000191
0.000152
0.000131
0.000152
0.000189
0.000131
0.000100
0.000100
0.000139
0.000136
0.000121
0.000168
0.000170
0.000152
0.000160
0.000165
0.000149
0.000129
0.000152
0.000139
0.000173
0.000126
0.000134
0.000136
0.000126
0.000113
0.000142
0.000163
0.000186
0.000142
0.000136
0.000134
0.000129
0.000066
0.000076
0.000105
0.000081
0.000047
0.000079
0.000092
0.000121
0.000118
0.000155
0.000176
0.000212
0.000176
0.000170
0.000170
0.000178
0.000134
0.000155
0.000157
0.000144
0.000115
0.000134
0.000115
0.000084
0.000076
0.000097
0.000047
0.000129
0.000115
0.000131
0.000136
0.000144
0.000157
0.000139
0.000147
0.000199
0.000152
0.000155
0.000176
0.000173
0.000108
0.000108
0.000092
0.000076
0.000055
0.000066
0.000084
0.000129
0.000115
0.000121
0.000131
0.000176
0.000149
0.000160
0.000118
0.000152
0.000129
0.000134
0.000105
0.000149
0.000115
0.000126
0.000129
0.000131
0.000144
0.000165
0.000113
0.000147
0.000113
0.000105
0.000108
0.000126
0.000123
0.000100
0.000105
0.000136
0.000118
0.000129
0.000102
0.000155
0.000131
0.000152
0.000170
0.000184
0.000186
0.000191
0.000160
0.000184
0.000155
0.000142
0.000118
0.000160
0.000155
0.000144
0.000108
0.000129
0.000071
0.000087
0.000097
0.000157
0.000115
0.000149
0.000163
0.000152
0.000142
0.000168
0.000184
0.000186
0.000178
0.000163
0.000147
0.000155
0.000108
0.000076
0.000105
0.000129
0.000126
0.000100
0.000123
0.000136
0.000079
0.000097
0.000110
0.000115
0.000110
0.000165
0.000155
0.000186
0.000186
0.000199
0.000189
0.000194
0.000168
0.000149
0.000165
0.000202
0.000157
0.000165
0.000160
0.000144
0.000105
0.000102
0.000134
0.000139
0.000121
0.000189
0.000165
0.000194
0.000144
0.000157
0.000168
0.000144
0.000118
0.000144
0.000136
0.000147
0.000139
0.000155
0.000160
0.000176
0.000139
0.000149
0.000176
0.000168
0.000155
0.000149
0.000100
0.000129
0.000102
0.000094
0.000126
0.000131
0.000131
0.000139
0.000131
0.000170
0.000191
0.000165
0.000176
0.000205
0.000139
0.000160
0.000178
0.000178
0.000152
0.000157
0.000126
0.000102
0.000100
0.000102
0.000123
0.000113
0.000100
0.000110
0.000136
0.000170
0.000168
0.000157
0.000199
0.000194
0.000147
0.000155
0.000149
0.000157
0.000113
0.000102
0.000110
0.000100
0.000136
0.000134
0.000160
0.000155
0.000149
0.000144
0.000160
0.000189
0.000170
0.000121
0.000165
0.000173
0.000147
0.000163
0.000184
0.000186
0.000144
0.000144
0.000129
0.000126
0.000110
0.000118
0.000134
0.000157
0.000155
0.000181
0.000168
0.000178
0.000134
0.000126
0.000118
0.000115
0.000084
0.000105
0.000129
0.000160
0.000131
0.000129
0.000131
0.000152
0.000134
0.000155
0.000160
0.000173
0.000163
0.000129
0.000108
0.000100
0.000121
0.000097
0.000092
0.000118
0.000071
0.000084
0.000136
0.000134
0.000121
0.000123
0.000136
0.000129
0.000121
0.000131
0.000097
0.000149
0.000131
0.000110
0.000149
0.000149
0.000115
0.000100
0.000108
0.000123
0.000110
0.000073
0.000129
0.000115
0.000110
0.000115
0.000123
0.000134
0.000126
0.000144
0.000131
0.000173
0.000186
0.000170
0.000163
0.000244
0.000202
0.000178
0.000226
0.000202
0.000223
0.000157
0.000142
0.000163
0.000105
0.000100
0.000108
0.000081
0.000087
0.000079
0.000089
0.000152
0.000149
0.000168
0.000181
0.000205
0.000165
0.000142
0.000155
0.000189
0.000157
0.000155
0.000157
0.000184
0.000147
0.000173
0.000191
0.000163
0.000155
0.000142
0.000163
0.000173
0.000134
0.000131
0.000136
0.000118
0.000102
0.000108
0.000144
0.000157
0.000142
0.000170
0.000189
0.000205
0.000152
0.000155
0.000173
0.000165
0.000157
0.000163
0.000139
0.000165
0.000136
0.000134
0.000126
0.000147
0.000134
0.000081
0.000102
0.000108
0.000066
0.000076
0.000108
0.000131
0.000089
0.000113
0.000123
0.000108
0.000139
0.000155
0.000149
0.000173
0.000160
0.000139
0.000139
0.000149
0.000152
0.000129
0.000118
0.000139
0.000110
0.000081
0.000144
0.000160
0.000129
0.000160
0.000152
0.000157
0.000173
0.000202
0.000173
0.000184
0.000173
0.000139
0.000134
0.000149
0.000136
0.000147
0.000144
0.000176
0.000149
0.000110
0.000144
0.000163
0.000134
0.000144
0.000139
0.000115
0.000136
0.000123
0.000115
0.000155
0.000142
0.000126
0.000131
0.000152
0.000160
0.000142
0.000160
0.000199
0.000121
0.000123
0.000126
0.000113
0.000073
0.000071
0.000110
0.000108
0.000118
0.000144
0.000131
0.000157
0.000157
0.000165
0.000168
0.000189
0.000170
0.000181
0.000205
0.000189
0.000131
0.000144
0.000129
0.000144
0.000136
0.000123
0.000113
0.000139
0.000136
0.000129
0.000155
0.000155
0.000149
0.000147
0.000147
0.000184
0.000160
0.000160
0.000165
0.000194
0.000173
0.000194
0.000197
0.000202
0.000173
0.000163
0.000149
0.000149
0.000160
0.000157
0.000131
0.000139
0.000118
0.000115
0.000123
0.000126
0.000123
0.000139
0.000142
0.000194
0.000191
0.000157
0.000160
0.000181
0.000165
0.000165
0.000152
0.000173
0.000144
0.000129
0.000136
0.000136
0.000157
0.000149
0.000110
0.000110
0.000102
0.000079
0.000123
0.000152
0.000176
0.000184
0.000170
0.000239
0.000205
0.000178
0.000194
0.000181
0.000168
0.000170
0.000160
0.000199
0.000165
0.000152
0.000113
0.000102
0.000066
0.000068
0.000094
0.000126
0.000110
0.000105
0.000147
0.000157
0.000144
0.000165
0.000186
0.000207
0.000160
0.000176
0.000142
0.000157
0.000168
0.000165
0.000168
0.000189
0.000170
0.000170
0.000155
0.000197
0.000163
0.000136
0.000165
0.000189
0.000160
0.000184
0.000165
0.000152
0.000149
0.000173
0.000178
0.000189
0.000163
0.000173
0.000197
0.000197
0.000155
0.000160
0.000160
0.000160
0.000176
0.000176
0.000181
0.000176
0.000142
0.000155
0.000134
0.000152
0.000144
0.000170
0.000149
0.000176
0.000163
0.000194
0.000194
0.000199
0.000176
0.000181
0.000189
0.000170
0.000155
0.000165
0.000129
0.000129
0.000105
0.000115
0.000113
0.000139
0.000139
0.000186
0.000149
0.000168
0.000163
0.000144
0.000147
0.000147
0.000157
0.000147
0.000144
0.000181
0.000160
0.000147
0.000152
0.000147
0.000136
0.000147
0.000149
0.000173
0.000178
0.000168
0.000155
0.000131
0.000110
0.000094
0.000089
0.000123
0.000115
0.000136
0.000149
0.000168
0.000173
0.000165
0.000197
0.000239
0.000191
0.000189
0.000210
0.000199
0.000157
0.000194
0.000181
0.000194
0.000168
0.000160
0.000189
0.000178
0.000168
0.000176
0.000134
0.000202
0.000152
0.000160
0.000191
0.000184
0.000152
0.000165
0.000181
0.000170
0.000147
0.000199
0.000191
0.000194
0.000197
0.000199
0.000197
0.000223
0.000191
0.000163
0.000202
0.000205
0.000189
0.000160
0.000142
0.000157
0.000134
0.000129
0.000142
0.000155
0.000144
0.000144
0.000173
0.000197
0.000186
0.000197
0.000176
0.000176
0.000152
0.000136
0.000160
0.000170
0.000184
0.000168
0.000178
0.000197
0.000184
0.000181
0.000163
0.000202
0.000131
0.000144
0.000144
0.000136
0.000136
0.000144
0.000163
0.000194
0.000147
0.000136
0.000178
0.000186
0.000170
0.000170
0.000170
0.000207
0.000191
0.000178
0.000191
0.000181
0.000163
0.000155
0.000144
0.000157
0.000129
0.000139
0.000149
0.000163
0.000139
0.000160
0.000144
0.000191
0.000165
0.000134
0.000191
0.000189
0.000155
0.000139
0.000144
0.000131
0.000113
0.000121
0.000160
0.000149
0.000160
0.000176
0.000186
0.000210
0.000205
0.000212
0.000199
0.000181
0.000149
0.000163
0.000168
0.000186
0.000176
0.000155
0.000191
0.000199
0.000163
0.000163
0.000149
0.000155
0.000108
0.000121
0.000152
0.000160
0.000157
0.000152
0.000157
0.000170
0.000144
0.000176
0.000207
0.000197
0.000170
0.000184
0.000178
0.000194
0.000194
0.000199
0.000220
0.000233
0.000181
0.000218
0.000181
0.000205
0.000178
0.000121
0.000142
0.000163
0.000149
0.000131
0.000152
0.000178
0.000152
0.000123
0.000136
0.000139
0.000144
0.000152
0.000134
0.000168
0.000131
0.000165
0.000168
0.000181
0.000160
0.000152
0.000121
0.000136
0.000100
0.000092
0.000092
0.000129
0.000118
0.000126
0.000147
0.000170
0.000163
0.000197
0.000199
0.000165
0.000147
0.000118
0.000129
0.000144
0.000129
0.000163
0.000178
0.000199
0.000139
0.000142
0.000160
0.000131
0.000118
0.000142
0.000142
0.000142
0.000113
0.000139
0.000147
0.000176
0.000121
0.000139
0.000163
0.000210
0.000168
0.000186
0.000218
0.000197
0.000163
0.000165
0.000163
0.000168
0.000110
0.000160
0.000176
0.000178
0.000142
0.000149
0.000173
0.000170
0.000176
0.000189
0.000197
0.000212
0.000218
0.000210
0.000197
0.000191
0.000105
0.000118
0.000134
0.000123
0.000115
0.000152
0.000147
0.000149
0.000157
0.000207
0.000181
0.000181
0.000157
0.000139
0.000149
0.000152
0.000149
0.000165
0.000160
0.000181
0.000173
0.000191
0.000205
0.000218
0.000194
0.000220
0.000210
0.000226
0.000215
0.000223
0.000228
0.000207
0.000184
0.000157
0.000147
0.000176
0.000168
0.000155
0.000136
0.000152
0.000110
0.000110
0.000136
0.000181
0.000129
0.000173
0.000181
0.000176
0.000157
0.000181
0.000168
0.000191
0.000191
0.000202
0.000194
0.000223
0.000205
0.000144
0.000136
0.000184
0.000144
0.000136
0.000181
0.000170
0.000113
0.000121
0.000126
0.000136
0.000144
0.000163
0.000186
0.000191
0.000173
0.000197
0.000181
0.000210
0.000189
0.000186
0.000165
0.000210
0.000147
0.000176
0.000194
0.000178
0.000178
0.000199
0.000218
0.000210
0.000178
0.000168
0.000178
0.000142
0.000165
0.000139
0.000129
0.000170
0.000142
0.000152
0.000152
0.000191
0.000168
0.000176
0.000207
0.000202
0.000202
0.000170
0.000170
0.000186
0.000149
0.000181
0.000191
0.000165
0.000152
0.000110
0.000066
0.000108
0.000105
0.000157
0.000176
0.000199
0.000191
0.000194
0.000144
0.000194
0.000168
0.000173
0.000184
0.000173
0.000173
0.000176
0.000170
0.000170
0.000173
0.000202
0.000173
0.000220
0.000231
0.000189
0.000205
0.000228
0.000202
0.000165
0.000197
0.000186
0.000173
0.000163
0.000163
0.000212
0.000189
0.000176
0.000186
0.000194
0.000173
0.000157
0.000136
0.000178
0.000184
0.000191
0.000168
0.000163
0.000157
0.000087
0.000113
0.000139
0.000108
0.000129
0.000152
0.000186
0.000186
0.000181
0.000191
0.000197
0.000186
0.000189
0.000186
0.000194
0.000181
0.000173
0.000155
0.000178
0.000176
0.000176
0.000186
0.000241
0.000165
0.000186
0.000199
0.000181
0.000149
0.000176
0.000184
0.000173
0.000165
0.000155
0.000139
0.000155
0.000110
0.000149
0.000123
0.000152
0.000129
0.000108
0.000121
0.000144
0.000100
0.000100
0.000131
0.000142
0.000115
0.000152
0.000173
0.000173
0.000149
0.000181
0.000194
0.000184
0.000202
0.000202
0.000168
0.000176
0.000147
0.000139
0.000165
0.000178
0.000176
0.000184
0.000176
0.000178
0.000123
0.000131
0.000118
0.000136
0.000139
0.000152
0.000176
0.000157
0.000194
0.000168
0.000149
0.000186
0.000165
0.000173
0.000163
0.000176
0.000160
0.000178
0.000181
0.000165
0.000147
0.000181
0.000170
0.000191
0.000181
0.000173
0.000184
0.000184
0.000197
0.000210
0.000168
0.000220
0.000189
0.000197
0.000199
0.000191
0.000157
0.000170
0.000147
0.000152
0.000131
0.000144
0.000134
0.000136
0.000178
0.000194
0.000157
0.000173
0.000149
0.000170
0.000157
0.000173
0.000160
0.000160
0.000149
0.000149
0.000149
0.000194
0.000178
0.000163
0.000149
0.000168
0.000152
0.000157
0.000155
0.000149
0.000152
0.000173
0.000149
0.000170
0.000123
0.000207
0.000194
0.000197
0.000207
0.000226
0.000199
0.000189
0.000205
0.000218
0.000212
0.000181
0.000160
0.000184
0.000165
0.000186
0.000147
0.000152
0.000144
0.000155
0.000189
0.000212
0.000199
0.000197
0.000199
0.000244
0.000181
0.000207
0.000199
0.000184
0.000170
0.000170
0.000170
0.000178
0.000157
0.000155
0.000186
0.000178
0.000168
0.000184
0.000168
0.000157
0.000118
0.000105
0.000123
0.000147
0.000123
0.000160
0.000173
0.000197
0.000160
0.000168
0.000191
0.000178
0.000155
0.000163
0.000170
0.000194
0.000160
0.000178
0.000170
0.000197
0.000176
0.000215
0.000223
0.000231
0.000184
0.000215
0.000218
0.000199
0.000191
0.000197
0.000186
0.000184
0.000100
0.000155
0.000165
0.000149
0.000160
0.000184
0.000194
0.000218
0.000210
0.000197
0.000202
0.000199
0.000160
0.000165
0.000197
0.000176
0.000170
0.000181
0.000199
0.000202
0.000181
0.000191
0.000194
0.000163
0.000181
0.000176
0.000144
0.000176
0.000191
0.000199
0.000202
0.000194
0.000207
0.000215
0.000202
0.000181
0.000173
0.000194
0.000178
0.000207
0.000212
0.000220
0.000218
0.000226
0.000223
0.000223
0.000215
0.000233
0.000220
0.000210
0.000202
0.000215
0.000186
0.000218
0.000215
0.000236
0.000218
0.000241
0.000189
0.000220
0.000191
0.000170
0.000168
0.000168
0.000134
0.000121
0.000121
0.000131
0.000152
0.000110
0.000157
0.000170
0.000123
0.000102
0.000102
0.000076
0.000068
0.000115
0.000134
0.000173
0.000163
0.000181
0.000176
0.000210
0.000191
0.000207
0.000197
0.000215
0.000191
0.000165
0.000173
0.000199
0.000152
0.000181
0.000218
0.000241
0.000189
0.000215
0.000199
0.000207
0.000191
0.000181
0.000181
0.000197
0.000165
0.000189
0.000191
0.000218
0.000152
0.000139
0.000168
0.000168
0.000142
0.000160
0.000181
0.000205
0.000191
0.000205
0.000218
0.000210
0.000176
0.000181
0.000186
0.000170
0.000142
0.000123
0.000139
0.000157
0.000118
0.000129
0.000152
0.000163
0.000142
0.000178
0.000226
0.000202
0.000191
0.000218
0.000205
0.000215
0.000191
0.000184
0.000191
0.000168
0.000184
0.000199
0.000181
0.000212
0.000202
0.000184
0.000181
0.000194
0.000176
0.000205
0.000205
0.000215
0.000202
0.000223
0.000233
0.000212
0.000184
0.000191
0.000181
0.000168
0.000142
0.000186
0.000178
0.000205
0.000205
0.000181
0.000170
0.000199
0.000189
0.000178
0.000202
0.000226
0.000191
0.000178
0.000215
0.000226
0.000212
0.000226
0.000207
0.000210
0.000205
0.000205
0.000160
0.000207
0.000184
0.000173
0.000178
0.000191
0.000184
0.000189
0.000202
0.000220
0.000176
0.000184
0.000212
0.000212
0.000173
0.000186
0.000197
0.000176
0.000155
0.000142
0.000157
0.000152
0.000144
0.000129
0.000178
0.000189
0.000168
0.000184
0.000165
0.000205
0.000155
0.000168
0.000176
0.000160
0.000157
0.000157
0.000157
0.000181
0.000147
0.000160
0.000139
0.000189
0.000163
0.000191
0.000189
0.000215
0.000170
0.000197
0.000210
0.000231
0.000205
0.000202
0.000165
0.000194
0.000176
0.000191
0.000197
0.000147
0.000149
0.000139
0.000118
0.000144
0.000118
0.000134
0.000142
0.000181
0.000170
0.000178
0.000178
0.000189
0.000212
0.000197
0.000178
0.000189
0.000142
0.000178
0.000160
0.000189
0.000186
0.000157
0.000152
0.000181
0.000181
0.000178
0.000163
0.000173
0.000160
0.000163
0.000144
0.000152
0.000144
0.000142
0.000155
0.000202
0.000155
0.000160
0.000191
0.000186
0.000186
0.000212
0.000189
0.000252
0.000199
0.000191
0.000210
0.000202
0.000186
0.000165
0.000160
0.000194
0.000178
0.000178
0.000191
0.000223
0.000194
0.000220
0.000233
0.000223
0.000231
0.000226
0.000210
0.000189
0.000176
0.000189
0.000197
0.000207
0.000163
0.000160
0.000157
0.000157
0.000144
0.000160
0.000178
0.000191
0.000160
0.000173
0.000181
0.000160
0.000186
0.000178
0.000173
0.000202
0.000205
0.000205
0.000202
0.000231
0.000199
0.000210
0.000184
0.000210
0.000189
0.000181
0.000202
0.000186
0.000147
0.000152
0.000144
0.000163
0.000147
0.000155
0.000123
0.000184
0.000178
0.000168
0.000212
0.000223
0.000241
0.000241
0.000231
0.000247
0.000239
0.000191
0.000178
0.000197
0.000186
0.000170
0.000142
0.000163
0.000142
0.000123
0.000147
0.000189
0.000176
0.000155
0.000178
0.000199
0.000197
0.000168
0.000197
0.000231
0.000194
0.000210
0.000205
0.000202
0.000189
0.000186
0.000191
0.000205
0.000215
0.000168
0.000197
0.000197
0.000163
0.000168
0.000155
0.000160
0.000144
0.000157
0.000152
0.000207
0.000178
0.000176
0.000205
0.000228
0.000176
0.000205
0.000218
0.000212
0.000202
0.000197
0.000215
0.000218
0.000178
0.000176
0.000228
0.000207
0.000194
0.000170
0.000189
0.000202
0.000152
0.000173
0.000212
0.000170
0.000168
0.000199
0.000197
0.000202
0.000191
0.000186
0.000181
0.000191
0.000173
0.000165
0.000199
0.000220
0.000176
0.000194
0.000194
0.000176
0.000157
0.000165
0.000191
0.000173
0.000189
0.000170
0.000186
0.000212
0.000205
0.000236
0.000215
0.000218
0.000212
0.000189
0.000199
0.000218
0.000202
0.000215
0.000231
0.000212
0.000210
0.000207
0.000194
0.000189
0.000160
0.000220
0.000207
0.000178
0.000205
0.000186
0.000173
0.000194
0.000189
0.000168
0.000168
0.000199
0.000194
0.000184
0.000181
0.000202
0.000178
0.000170
0.000199
t0(sec) = 0.000000E+0
dt(sec) = 4.000000E-10
F2:INSP "
DESCRIPTOR_NAME    : WAVEDESC           
TEMPLATE_NAME      : LECROY_2_3         
COMM_TYPE          : word               
COMM_ORDER         : HIFIRST            
WAVE_DESCRIPTOR    : 346                
USER_TEXT          : 0                  
RES_DESC1          : 0                  
TRIGTIME_ARRAY     : 0                  
RIS_TIME_ARRAY     : 0                  
RES_ARRAY1         : 0                  
WAVE_ARRAY_1       : 10002              
WAVE_ARRAY_2       : 0                  
RES_ARRAY2         : 0                  
RES_ARRAY3         : 0                  
INSTRUMENT_NAME    : LECROYHDO6104      
INSTRUMENT_NUMBER  : 6308               
TRACE_LABEL        :                    
RESERVED1          : 5001               
RESERVED2          : 0                  
WAVE_ARRAY_COUNT   : 5001               
PNTS_PER_SCREEN    : 5000               
FIRST_VALID_PNT    : 0                  
LAST_VALID_PNT     : 5000               
FIRST_POINT        : 0                  
SPARSING_FACTOR    : 1                  
SEGMENT_INDEX      : 0                  
SUBARRAY_COUNT     : 1                  
SWEEPS_PER_ACQ     : 200                
POINTS_PER_PAIR    : 0                  
PAIR_OFFSET        : 0                  
VERTICAL_GAIN      : 2.6238e-006        
VERTICAL_OFFSET    : 4.2500e-002        
MAX_VALUE          : 3.2512e+004        
MIN_VALUE          : -2.5373e+004       
NOMINAL_BITS       : 16                 
NOM_SUBARRAY_COUNT : 1                  
HORIZ_INTERVAL     : 4.0000e-010        
HORIZ_OFFSET       : -2.00000000e-007   
PIXEL_OFFSET       : -2.00000000e-007   
VERTUNIT           : Unit Name = V
HORUNIT            : Unit Name = S
HORIZ_UNCERTAINTY  : 1.0000e-012        
TRIGGER_TIME       : Date = APR 17, 2024, Time = 19:17:34.858259610
ACQ_DURATION       : 1.0049e+001        
RECORD_TYPE        : single_sweep       
PROCESSING_DONE    : no_processing      
RESERVED5          : 0                  
RIS_SWEEPS         : 1                  
TIMEBASE           : 200_ns/div         
VERT_COUPLING      : DC_50_Ohms         
PROBE_ATT          : 1.0000e+000        
FIXED_VERT_GAIN    : 20_mV/div          
BANDWIDTH_LIMIT    : off                
VERTICAL_VERNIER   : 1.0500e+000        
ACQ_VERT_OFFSET    : 0.0000e+000        
WAVE_SOURCE        : UNKNOWN            
"
0.001377
0.001388
0.001372
0.001377
0.001393
0.001388
0.001362
0.001385
0.001393
0.001383
0.001370
0.001393
0.001396
0.001393
0.001393
0.001375
0.001383
0.001359
0.001380
0.001364
0.001375
0.001391
0.001377
0.001391
0.001377
0.001377
0.001385
0.001380
0.001406
0.001380
0.001377
0.001385
0.001393
0.001398
0.001377
0.001385
0.001401
0.001401
0.001375
0.001385
0.001354
0.001385
0.001377
0.001375
0.001393
0.001385
0.001359
0.001367
0.001388
0.001398
0.001359
0.001398
0.001406
0.001385
0.001380
0.001385
0.001385
0.001393
0.001404
0.001401
0.001398
0.001388
0.001375
0.001385
0.001383
0.001388
0.001367
0.001380
0.001419
0.001391
0.001383
0.001393
0.001393
0.001385
0.001356
0.001380
0.001385
0.001385
0.001393
0.001359
0.001367
0.001380
0.001377
0.001383
0.001412
0.001370
0.001398
0.001380
0.001385
0.001391
0.001367
0.001364
0.001393
0.001367
0.001388
0.001388
0.001375
0.001377
0.001364
0.001359
0.001354
0.001377
0.001346
0.001385
0.001385
0.001383
0.001398
0.001375
0.001398
0.001393
0.001375
0.001391
0.001380
0.001383
0.001370
0.001396
0.001391
0.001388
0.001393
0.001385
0.001388
0.001412
0.001377
0.001377
0.001375
0.001370
0.001375
0.001391
0.001388
0.001370
0.001370
0.001401
0.001391
0.001391
0.001362
0.001391
0.001370
0.001346
0.001338
0.001372
0.001391
0.001367
0.001364
0.001372
0.001375
0.001391
0.001367
0.001398
0.001383
0.001364
0.001362
0.001404
0.001388
0.001377
0.001362
0.001391
0.001380
0.001359
0.001393
0.001409
0.001398
0.001406
0.001393
0.001385
0.001388
0.001375
0.001375
0.001404
0.001409
0.001383
0.001364
0.001401
0.001396
0.001385
0.001385
0.001417
0.001372
0.001362
0.001375
0.001391
0.001370
0.001393
0.001393
0.001372
0.001388
0.001398
0.001359
0.001372
0.001388
0.001375
0.001349
0.001391
0.001385
0.001383
0.001388
0.001393
0.001391
0.001372
0.001372
0.001375
0.001359
0.001383
0.001383
0.001388
0.001385
0.001393
0.001393
0.001385
0.001380
0.001398
0.001372
0.001393
0.001393
0.001385
0.001370
0.001401
0.001393
0.001396
0.001385
0.001398
0.001385
0.001377
0.001359
0.001370
0.001385
0.001401
0.001364
0.001398
0.001391
0.001377
0.001364
0.001385
0.001383
0.001377
0.001372
0.001388
0.001367
0.001375
0.001375
0.001370
0.001367
0.001375
0.001362
0.001375
0.001388
0.001364
0.001388
0.001396
0.001383
0.001398
0.001377
0.001385
0.001414
0.001372
0.001354
0.001385
0.001364
0.001367
0.001349
0.001370
0.001372
0.001351
0.001388
0.001393
0.001383
0.001396
0.001385
0.001372
0.001412
0.001406
0.001375
0.001391
0.001388
0.001393
0.001362
0.001388
0.001372
0.001333
0.001367
0.001383
0.001370
0.001401
0.001362
0.001385
0.001401
0.001388
0.001380
0.001388
0.001396
0.001409
0.001377
0.001383
0.001375
0.001372
0.001375
0.001388
0.001372
0.001388
0.001380
0.001391
0.001354
0.001380
0.001370
0.001362
0.001380
0.001364
0.001417
0.001404
0.001388
0.001398
0.001364
0.001398
0.001364
0.001364
0.001362
0.001370
0.001417
0.001362
0.001364
0.001388
0.001362
0.001370
0.001362
0.001380
0.001385
0.001375
0.001396
0.001377
0.001409
0.001391
0.001377
0.001419
0.001367
0.001383
0.001380
0.001388
0.001375
0.001375
0.001367
0.001383
0.001375
0.001383
0.001391
0.001380
0.001393
0.001377
0.001396
0.001391
0.001406
0.001398
0.001380
0.001388
0.001396
0.001398
0.001370
0.001391
0.001362
0.001404
0.001391
0.001406
0.001388
0.001372
0.001377
0.001351
0.001377
0.001356
0.001338
0.001396
0.001396
0.001393
0.001377
0.001372
0.001364
0.001370
0.001393
0.001401
0.001398
0.001391
0.001367
0.001398
0.001383
0.001380
0.001383
0.001367
0.001370
0.001383
0.001385
0.001377
0.001375
0.001383
0.001356
0.001393
0.001383
0.001377
0.001367
0.001388
0.001417
0.001404
0.001396
0.001406
0.001385
0.001391
0.001393
0.001393
0.001412
0.001391
0.001388
0.001404
0.001398
0.001396
0.001364
0.001380
0.001385
0.001396
0.001375
0.001380
0.001370
0.001359
0.001364
0.001385
0.001412
0.001388
0.001377
0.001409
0.001396
0.001383
0.001354
0.001372
0.001380
0.001372
0.001404
0.001414
0.001383
0.001380
0.001356
0.001370
0.001412
0.001375
0.001370
0.001427
0.001393
0.001354
0.001346
0.001335
0.001380
0.001385
0.001380
0.001412
0.001398
0.001380
0.001372
0.001380
0.001409
0.001419
0.001409
0.001388
0.001396
0.001367
0.001372
0.001409
0.001391
0.001412
0.001377
0.001391
0.001362
0.001346
0.001406
0.001419
0.001440
0.001409
0.001414
0.001398
0.001377
0.001372
0.001377
0.001362
0.001351
0.001364
0.001335
0.001356
0.001380
0.001388
0.001425
0.001419
0.001417
0.001438
0.001367
0.001393
0.001383
0.001380
0.001322
0.001328
0.001349
0.001343
0.001404
0.001404
0.001412
0.001412
0.001370
0.001375
0.001341
0.001359
0.001362
0.001354
0.001338
0.001251
0.001217
0.001296
0.001335
0.001370
0.001425
0.001453
0.001412
0.001391
0.001343
0.001375
0.001375
0.001377
0.001404
0.001438
0.001409
0.001377
0.001380
0.001430
0.001430
0.001419
0.001393
0.001354
0.001356
0.001362
0.001354
0.001406
0.001435
0.001419
0.001414
0.001406
0.001377
0.001380
0.001367
0.001396
0.001396
0.001349
0.001335
0.001335
0.001299
0.001333
0.001338
0.001414
0.001425
0.001409
0.001404
0.001404
0.001398
0.001430
0.001354
0.001330
0.001309
0.001304
0.001291
0.001228
0.001170
0.001034
0.000808
0.000467
0.000008
-0.000653
-0.001540
-0.002424
-0.003303
-0.004085
-0.004844
-0.005594
-0.006567
-0.007601
-0.008438
-0.008806
-0.008761
-0.008887
-0.009086
-0.009186
-0.009249
-0.009288
-0.009097
-0.008879
-0.008992
-0.009217
-0.009139
-0.008824
-0.008687
-0.008606
-0.008593
-0.008583
-0.008580
-0.008362
-0.007997
-0.007767
-0.007871
-0.007861
-0.007588
-0.007320
-0.007310
-0.007297
-0.007174
-0.007097
-0.007037
-0.006961
-0.006890
-0.006822
-0.006746
-0.006583
-0.006339
-0.006098
-0.005967
-0.005738
-0.005615
-0.005744
-0.005961
-0.005935
-0.005618
-0.005290
-0.005237
-0.005174
-0.005025
-0.004904
-0.004930
-0.005077
-0.005242
-0.005193
-0.004930
-0.004768
-0.004647
-0.004476
-0.004568
-0.004768
-0.004972
-0.005033
-0.005012
-0.005014
-0.004891
-0.004697
-0.004702
-0.004865
-0.004844
-0.004684
-0.004628
-0.004555
-0.004379
-0.004049
-0.003860
-0.003844
-0.003865
-0.004017
-0.004248
-0.004209
-0.003967
-0.003613
-0.003534
-0.003681
-0.003799
-0.003681
-0.003582
-0.003600
-0.003605
-0.003511
-0.003582
-0.003692
-0.003610
-0.003372
-0.003272
-0.003382
-0.003505
-0.003540
-0.003650
-0.003676
-0.003705
-0.003576
-0.003364
-0.003240
-0.003254
-0.003204
-0.003259
-0.003477
-0.003645
-0.003729
-0.003673
-0.003437
-0.003275
-0.003193
-0.003088
-0.003162
-0.003419
-0.003652
-0.003668
-0.003555
-0.003477
-0.003269
-0.003107
-0.003180
-0.003298
-0.003107
-0.002902
-0.002915
-0.002965
-0.002939
-0.003141
-0.003185
-0.002989
-0.003033
-0.003280
-0.003275
-0.003204
-0.003306
-0.003453
-0.003359
-0.003251
-0.003259
-0.003227
-0.003015
-0.002944
-0.003044
-0.003138
-0.003167
-0.003240
-0.003243
-0.003099
-0.003080
-0.003031
-0.002884
-0.002755
-0.002613
-0.002640
-0.002805
-0.002965
-0.003046
-0.003233
-0.003343
-0.003275
-0.003146
-0.003151
-0.002894
-0.002755
-0.002933
-0.003086
-0.002905
-0.002823
-0.002834
-0.002613
-0.002110
-0.001879
-0.002094
-0.002296
-0.002443
-0.002577
-0.002697
-0.002742
-0.002758
-0.002755
-0.002679
-0.002477
-0.002424
-0.002653
-0.002847
-0.002928
-0.002729
-0.002503
-0.002406
-0.002422
-0.002382
-0.002459
-0.002548
-0.002595
-0.002653
-0.002666
-0.002535
-0.002372
-0.002220
-0.002107
-0.002115
-0.002167
-0.002162
-0.002120
-0.002144
-0.002375
-0.002424
-0.002167
-0.002010
-0.001936
-0.001687
-0.001640
-0.001887
-0.002078
-0.002094
-0.002272
-0.002524
-0.002595
-0.002417
-0.002398
-0.002390
-0.002348
-0.002380
-0.002443
-0.002411
-0.002322
-0.002254
-0.002333
-0.002461
-0.002537
-0.002388
-0.002217
-0.002133
-0.002068
-0.002060
-0.002146
-0.002246
-0.002330
-0.002262
-0.002186
-0.002052
-0.001894
-0.001711
-0.001593
-0.001766
-0.002120
-0.002191
-0.002104
-0.002052
-0.002157
-0.002251
-0.002306
-0.002312
-0.002301
-0.002301
-0.002306
-0.002382
-0.002299
-0.002062
-0.002034
-0.002165
-0.002194
-0.002036
-0.001873
-0.001761
-0.001873
-0.001894
-0.001795
-0.001776
-0.001826
-0.001787
-0.001887
-0.001999
-0.001952
-0.001834
-0.001803
-0.001821
-0.001931
-0.002015
-0.002028
-0.001973
-0.001913
-0.001774
-0.001671
-0.001685
-0.001842
-0.001918
-0.001690
-0.001624
-0.001902
-0.002165
-0.002138
-0.002015
-0.001936
-0.001797
-0.001648
-0.001603
-0.001666
-0.001546
-0.001511
-0.001671
-0.001892
-0.001955
-0.002036
-0.002131
-0.002230
-0.002186
-0.002162
-0.002005
-0.001803
-0.001608
-0.001548
-0.001546
-0.001548
-0.001629
-0.001755
-0.001879
-0.001968
-0.002060
-0.001997
-0.001832
-0.001813
-0.001858
-0.001850
-0.001994
-0.002086
-0.001881
-0.001658
-0.001677
-0.001832
-0.001887
-0.001884
-0.001774
-0.001724
-0.001629
-0.001632
-0.001637
-0.001435
-0.001225
-0.001189
-0.001220
-0.001249
-0.001454
-0.001587
-0.001619
-0.001669
-0.001606
-0.001616
-0.001632
-0.001703
-0.001664
-0.001690
-0.001616
-0.001462
-0.001388
-0.001346
-0.001152
-0.001078
-0.001189
-0.001385
-0.001496
-0.001635
-0.001629
-0.001548
-0.001435
-0.001412
-0.001370
-0.001218
-0.001225
-0.001362
-0.001422
-0.001493
-0.001608
-0.001703
-0.001603
-0.001606
-0.001677
-0.001616
-0.001477
-0.001527
-0.001543
-0.001399
-0.001330
-0.001391
-0.001372
-0.001278
-0.001296
-0.001246
-0.001057
-0.000921
-0.000981
-0.001102
-0.001157
-0.001341
-0.001637
-0.001766
-0.001758
-0.001769
-0.001727
-0.001632
-0.001593
-0.001674
-0.001653
-0.001511
-0.001385
-0.001359
-0.001380
-0.001483
-0.001517
-0.001417
-0.001349
-0.001262
-0.001165
-0.001155
-0.001225
-0.001399
-0.001527
-0.001483
-0.001417
-0.001433
-0.001493
-0.001462
-0.001351
-0.001291
-0.001273
-0.001299
-0.001367
-0.001320
-0.001275
-0.001385
-0.001509
-0.001532
-0.001315
-0.001202
-0.001176
-0.001215
-0.001246
-0.001252
-0.001270
-0.001244
-0.001249
-0.001330
-0.001399
-0.001501
-0.001435
-0.001438
-0.001506
-0.001532
-0.001388
-0.001249
-0.001168
-0.001073
-0.000992
-0.001055
-0.001123
-0.001231
-0.001301
-0.001286
-0.001359
-0.001333
-0.001081
-0.000947
-0.000853
-0.000869
-0.000976
-0.001194
-0.001317
-0.001223
-0.001050
-0.001008
-0.000989
-0.000981
-0.001107
-0.001283
-0.001362
-0.001286
-0.001181
-0.001099
-0.000984
-0.001029
-0.001084
-0.001044
-0.000953
-0.000871
-0.000900
-0.000979
-0.001105
-0.001176
-0.001191
-0.001260
-0.001349
-0.001275
-0.001073
-0.000903
-0.000895
-0.000950
-0.000890
-0.000900
-0.000995
-0.000966
-0.000926
-0.000908
-0.000947
-0.001008
-0.001042
-0.001073
-0.001029
-0.001094
-0.001225
-0.001281
-0.001170
-0.001092
-0.001170
-0.001388
-0.001629
-0.001703
-0.001551
-0.001351
-0.001168
-0.001118
-0.001210
-0.001401
-0.001475
-0.001420
-0.001291
-0.001204
-0.001155
-0.001044
-0.000995
-0.001018
-0.001010
-0.001042
-0.001026
-0.001026
-0.000942
-0.000890
-0.000905
-0.001042
-0.001170
-0.001228
-0.001244
-0.001241
-0.001123
-0.001128
-0.001139
-0.001021
-0.000863
-0.000897
-0.001000
-0.000945
-0.000903
-0.001176
-0.001435
-0.001307
-0.001105
-0.001071
-0.001010
-0.000874
-0.000803
-0.000766
-0.000619
-0.000543
-0.000635
-0.000869
-0.000905
-0.000842
-0.000706
-0.000598
-0.000667
-0.000750
-0.000806
-0.000779
-0.000769
-0.000829
-0.000800
-0.000798
-0.000821
-0.000879
-0.000861
-0.000769
-0.000690
-0.000730
-0.000782
-0.000761
-0.000722
-0.000758
-0.000701
-0.000669
-0.000716
-0.000716
-0.000659
-0.000790
-0.001013
-0.001068
-0.000871
-0.000724
-0.000753
-0.000853
-0.000855
-0.000827
-0.000753
-0.000769
-0.000876
-0.001084
-0.001147
-0.001015
-0.000832
-0.000638
-0.000457
-0.000569
-0.000903
-0.001120
-0.001102
-0.001078
-0.000937
-0.000863
-0.000953
-0.000989
-0.000892
-0.000764
-0.000764
-0.000845
-0.000832
-0.000732
-0.000546
-0.000475
-0.000378
-0.000386
-0.000567
-0.000766
-0.000785
-0.000745
-0.000722
-0.000861
-0.000850
-0.000698
-0.000564
-0.000601
-0.000598
-0.000609
-0.000664
-0.000848
-0.000845
-0.000727
-0.000669
-0.000659
-0.000567
-0.000514
-0.000462
-0.000496
-0.000653
-0.000850
-0.000963
-0.000945
-0.000858
-0.000727
-0.000604
-0.000525
-0.000462
-0.000386
-0.000373
-0.000496
-0.000562
-0.000732
-0.000824
-0.000771
-0.000719
-0.000625
-0.000512
-0.000488
-0.000562
-0.000575
-0.000504
-0.000449
-0.000538
-0.000730
-0.000821
-0.000840
-0.000677
-0.000588
-0.000648
-0.000853
-0.000971
-0.000950
-0.000916
-0.000845
-0.000674
-0.000527
-0.000467
-0.000462
-0.000433
-0.000323
-0.000339
-0.000491
-0.000711
-0.000819
-0.000785
-0.000800
-0.000850
-0.000842
-0.000834
-0.000845
-0.000879
-0.000882
-0.000890
-0.000785
-0.000685
-0.000674
-0.000651
-0.000617
-0.000585
-0.000651
-0.000771
-0.000866
-0.000824
-0.000792
-0.000724
-0.000688
-0.000727
-0.000722
-0.000535
-0.000391
-0.000310
-0.000323
-0.000336
-0.000399
-0.000457
-0.000580
-0.000667
-0.000832
-0.000890
-0.000837
-0.000798
-0.000735
-0.000632
-0.000638
-0.000693
-0.000682
-0.000632
-0.000601
-0.000530
-0.000430
-0.000467
-0.000480
-0.000459
-0.000480
-0.000543
-0.000580
-0.000367
-0.000218
-0.000244
-0.000331
-0.000409
-0.000646
-0.000848
-0.001021
-0.000932
-0.000777
-0.000664
-0.000567
-0.000441
-0.000480
-0.000627
-0.000580
-0.000491
-0.000535
-0.000606
-0.000520
-0.000438
-0.000449
-0.000485
-0.000475
-0.000480
-0.000483
-0.000512
-0.000674
-0.000735
-0.000656
-0.000596
-0.000625
-0.000522
-0.000491
-0.000459
-0.000402
-0.000257
-0.000223
-0.000307
-0.000441
-0.000522
-0.000506
-0.000585
-0.000635
-0.000525
-0.000465
-0.000438
-0.000375
-0.000213
-0.000160
-0.000239
-0.000241
-0.000131
-0.000158
-0.000307
-0.000318
-0.000331
-0.000517
-0.000664
-0.000753
-0.000711
-0.000653
-0.000604
-0.000554
-0.000470
-0.000417
-0.000328
-0.000228
-0.000129
-0.000131
-0.000210
-0.000244
-0.000270
-0.000297
-0.000402
-0.000430
-0.000459
-0.000538
-0.000459
-0.000388
-0.000362
-0.000370
-0.000362
-0.000430
-0.000504
-0.000577
-0.000630
-0.000598
-0.000598
-0.000548
-0.000412
-0.000383
-0.000415
-0.000457
-0.000640
-0.000730
-0.000606
-0.000430
-0.000344
-0.000360
-0.000449
-0.000530
-0.000430
-0.000320
-0.000381
-0.000509
-0.000525
-0.000483
-0.000409
-0.000362
-0.000304
-0.000199
-0.000142
-0.000194
-0.000241
-0.000302
-0.000485
-0.000698
-0.000803
-0.000711
-0.000493
-0.000276
-0.000152
-0.000231
-0.000428
-0.000614
-0.000596
-0.000454
-0.000388
-0.000278
-0.000108
-0.000034
-0.000199
-0.000299
-0.000302
-0.000354
-0.000407
-0.000349
-0.000273
-0.000247
-0.000213
-0.000189
-0.000173
-0.000247
-0.000278
-0.000286
-0.000318
-0.000299
-0.000186
-0.000226
-0.000302
-0.000396
-0.000567
-0.000640
-0.000669
-0.000601
-0.000617
-0.000556
-0.000457
-0.000299
-0.000192
-0.000318
-0.000302
-0.000181
-0.000179
-0.000257
-0.000276
-0.000339
-0.000441
-0.000415
-0.000255
-0.000113
-0.000110
-0.000158
-0.000171
-0.000223
-0.000333
-0.000304
-0.000210
-0.000163
-0.000147
-0.000257
-0.000255
-0.000239
-0.000360
-0.000472
-0.000423
-0.000325
-0.000297
-0.000320
-0.000333
-0.000289
-0.000205
-0.000160
-0.000139
-0.000147
-0.000152
-0.000165
-0.000241
-0.000346
-0.000236
-0.000265
-0.000441
-0.000478
-0.000349
-0.000276
-0.000336
-0.000415
-0.000409
-0.000404
-0.000286
-0.000165
-0.000024
-0.000034
-0.000179
-0.000302
-0.000325
-0.000265
-0.000247
-0.000255
-0.000186
-0.000192
-0.000302
-0.000373
-0.000247
-0.000186
-0.000294
-0.000304
-0.000207
-0.000152
-0.000095
-0.000121
-0.000210
-0.000339
-0.000349
-0.000294
-0.000231
-0.000257
-0.000315
-0.000199
-0.000039
-0.000058
-0.000163
-0.000210
-0.000223
-0.000265
-0.000270
-0.000194
-0.000197
-0.000318
-0.000286
-0.000197
-0.000194
-0.000268
-0.000325
-0.000307
-0.000357
-0.000331
-0.000199
-0.000026
-0.000039
-0.000223
-0.000289
-0.000218
-0.000181
-0.000239
-0.000273
-0.000430
-0.000517
-0.000423
-0.000176
-0.000071
-0.000084
-0.000118
-0.000110
-0.000129
-0.000194
-0.000260
-0.000231
-0.000268
-0.000276
-0.000289
-0.000194
-0.000134
-0.000171
-0.000268
-0.000244
-0.000278
-0.000228
-0.000037
0.000068
-0.000055
-0.000199
-0.000336
-0.000367
-0.000273
-0.000202
-0.000189
-0.000236
-0.000194
-0.000215
-0.000265
-0.000294
-0.000307
-0.000215
-0.000121
-0.000045
-0.000018
-0.000060
-0.000089
-0.000068
-0.000066
-0.000005
0.000092
0.000128
0.000157
0.000155
-0.000037
-0.000116
-0.000123
-0.000168
-0.000331
-0.000394
-0.000354
-0.000333
-0.000257
-0.000260
-0.000375
-0.000341
-0.000223
-0.000155
-0.000150
-0.000042
-0.000053
-0.000155
-0.000192
-0.000092
-0.000013
0.000037
0.000008
0.000045
0.000029
-0.000045
0.000029
0.000123
0.000168
0.000252
0.000372
0.000404
0.000252
0.000121
-0.000087
-0.000265
-0.000367
-0.000367
-0.000344
-0.000244
-0.000092
-0.000097
-0.000116
-0.000095
-0.000129
0.000016
0.000163
0.000215
0.000147
0.000010
-0.000186
-0.000223
-0.000186
-0.000137
-0.000121
-0.000066
0.000003
0.000047
-0.000087
-0.000189
-0.000197
-0.000137
-0.000126
-0.000058
-0.000003
0.000063
0.000034
0.000018
0.000055
0.000066
0.000079
0.000139
0.000152
0.000010
-0.000144
-0.000087
0.000003
0.000073
0.000063
0.000060
0.000139
0.000226
0.000247
0.000239
0.000233
0.000131
0.000052
0.000073
0.000031
0.000024
-0.000063
-0.000068
-0.000018
0.000034
0.000055
0.000039
-0.000026
-0.000118
-0.000220
-0.000354
-0.000365
-0.000197
-0.000034
-0.000005
-0.000045
-0.000029
-0.000202
-0.000323
-0.000336
-0.000252
-0.000210
-0.000192
-0.000074
-0.000045
-0.000197
-0.000346
-0.000362
-0.000291
-0.000194
-0.000110
-0.000018
0.000100
0.000092
0.000003
-0.000168
-0.000276
-0.000307
-0.000194
-0.000102
-0.000013
-0.000047
-0.000173
-0.000234
-0.000147
-0.000047
0.000055
0.000142
0.000194
0.000128
0.000047
0.000024
-0.000029
-0.000110
-0.000126
-0.000163
-0.000102
-0.000079
-0.000047
-0.000113
-0.000131
-0.000042
0.000003
0.000024
0.000037
0.000042
0.000076
0.000136
0.000233
0.000215
0.000142
0.000034
-0.000074
-0.000184
-0.000320
-0.000433
-0.000394
-0.000325
-0.000213
-0.000108
0.000031
0.000029
0.000018
-0.000016
-0.000034
-0.000134
-0.000265
-0.000181
-0.000113
-0.000192
-0.000210
-0.000050
0.000128
0.000170
0.000142
0.000047
-0.000024
-0.000000
0.000039
0.000079
0.000121
0.000094
0.000073
0.000089
0.000191
0.000149
0.000118
0.000097
0.000050
0.000055
0.000149
0.000210
0.000189
0.000157
0.000281
0.000257
0.000076
0.000115
0.000189
0.000105
-0.000000
0.000100
0.000110
-0.000021
-0.000139
-0.000184
-0.000105
-0.000071
-0.000003
-0.000005
-0.000081
-0.000055
0.000136
0.000220
0.000218
0.000097
0.000008
-0.000008
0.000068
0.000097
0.000178
0.000218
0.000170
0.000055
0.000039
0.000034
-0.000053
-0.000142
-0.000016
0.000060
0.000097
0.000121
0.000191
0.000168
0.000073
0.000155
0.000349
0.000414
0.000294
0.000134
0.000060
-0.000016
-0.000218
-0.000483
-0.000472
-0.000315
-0.000131
0.000026
0.000181
0.000202
0.000165
0.000126
0.000136
0.000128
0.000100
0.000055
0.000047
0.000055
0.000018
-0.000084
-0.000087
-0.000021
0.000047
0.000079
0.000092
-0.000018
-0.000123
-0.000194
-0.000092
-0.000118
-0.000155
-0.000102
-0.000100
-0.000087
-0.000026
0.000013
0.000018
-0.000003
0.000008
-0.000016
0.000079
0.000262
0.000273
0.000189
0.000176
0.000155
0.000050
-0.000045
0.000026
0.000100
0.000079
0.000118
0.000212
0.000147
0.000050
0.000142
0.000223
0.000218
0.000210
0.000212
0.000265
0.000241
0.000131
-0.000013
0.000063
0.000131
0.000186
0.000207
0.000262
0.000226
0.000105
0.000076
0.000107
0.000010
-0.000063
0.000052
0.000139
0.000097
0.000100
0.000092
0.000092
0.000118
0.000184
0.000260
0.000260
0.000205
0.000131
0.000097
0.000073
0.000026
0.000018
0.000136
0.000205
0.000212
0.000149
0.000086
0.000042
0.000105
0.000223
0.000252
0.000241
0.000173
0.000173
0.000176
0.000260
0.000286
0.000202
0.000073
0.000113
0.000233
0.000362
0.000325
0.000218
0.000155
0.000178
0.000186
0.000207
0.000189
0.000102
-0.000003
0.000005
0.000128
0.000181
0.000157
0.000165
0.000257
0.000357
0.000354
0.000359
0.000404
0.000354
0.000281
0.000186
0.000118
0.000076
-0.000018
-0.000021
0.000052
0.000139
0.000205
0.000254
0.000325
0.000357
0.000239
0.000073
-0.000047
-0.000011
0.000068
0.000176
0.000239
0.000194
0.000037
0.000037
0.000199
0.000365
0.000409
0.000367
0.000420
0.000470
0.000393
0.000275
0.000244
0.000296
0.000317
0.000325
0.000323
0.000228
0.000178
0.000252
0.000283
0.000194
0.000152
0.000215
0.000226
0.000278
0.000312
0.000328
0.000291
0.000315
0.000370
0.000404
0.000443
0.000451
0.000367
0.000372
0.000409
0.000422
0.000344
0.000268
0.000136
0.000037
0.000107
0.000239
0.000123
-0.000060
-0.000063
-0.000008
-0.000005
0.000110
0.000165
0.000184
0.000236
0.000357
0.000302
0.000218
0.000281
0.000336
0.000320
0.000333
0.000268
-0.000024
-0.000207
-0.000058
0.000102
0.000163
0.000191
0.000265
0.000163
0.000079
0.000113
0.000081
0.000071
0.000181
0.000239
0.000260
0.000205
0.000226
0.000239
0.000341
0.000383
0.000315
0.000249
0.000283
0.000281
0.000302
0.000283
0.000220
0.000147
0.000107
0.000042
0.000073
0.000176
0.000257
0.000231
0.000341
0.000551
0.000658
0.000551
0.000517
0.000514
0.000391
0.000194
0.000118
0.000207
0.000205
0.000071
0.000045
0.000105
0.000223
0.000236
0.000286
0.000435
0.000540
0.000540
0.000588
0.000577
0.000370
0.000118
0.000092
0.000128
0.000068
0.000052
0.000144
0.000210
0.000168
0.000210
0.000331
0.000359
0.000336
0.000317
0.000417
0.000517
0.000483
0.000328
0.000247
0.000223
0.000239
0.000212
0.000205
0.000205
0.000191
0.000218
0.000270
0.000278
0.000210
0.000254
0.000428
0.000533
0.000653
0.000711
0.000721
0.000559
0.000304
0.000189
0.000134
0.000071
0.000084
0.000155
0.000205
0.000312
0.000352
0.000307
0.000296
0.000325
0.000333
0.000383
0.000372
0.000409
0.000485
0.000417
0.000352
0.000425
0.000512
0.000485
0.000514
0.000535
0.000590
0.000564
0.000561
0.000535
0.000438
0.000252
0.000126
0.000110
0.000045
0.000107
0.000302
0.000430
0.000496
0.000470
0.000396
0.000320
0.000273
0.000210
0.000228
0.000197
0.000152
0.000199
0.000281
0.000226
0.000199
0.000231
0.000233
0.000165
0.000191
0.000239
0.000254
0.000160
0.000092
0.000107
0.000121
0.000189
0.000241
0.000233
0.000299
0.000341
0.000391
0.000422
0.000443
0.000370
0.000354
0.000362
0.000328
0.000299
0.000399
0.000464
0.000459
0.000470
0.000449
0.000404
0.000506
0.000585
0.000519
0.000365
0.000341
0.000310
0.000294
0.000294
0.000341
0.000247
0.000184
0.000254
0.000344
0.000354
0.000320
0.000310
0.000291
0.000207
0.000215
0.000393
0.000530
0.000485
0.000362
0.000273
0.000244
0.000239
0.000199
0.000289
0.000367
0.000304
0.000328
0.000430
0.000567
0.000569
0.000506
0.000472
0.000483
0.000519
0.000556
0.000543
0.000514
0.000467
0.000480
0.000428
0.000391
0.000388
0.000286
0.000144
0.000168
0.000262
0.000268
0.000296
0.000425
0.000540
0.000519
0.000472
0.000467
0.000414
0.000260
0.000189
0.000328
0.000367
0.000323
0.000260
0.000296
0.000359
0.000435
0.000456
0.000538
0.000477
0.000409
0.000346
0.000226
0.000181
0.000226
0.000325
0.000383
0.000407
0.000393
0.000370
0.000341
0.000310
0.000325
0.000296
0.000320
0.000375
0.000396
0.000422
0.000488
0.000601
0.000590
0.000585
0.000617
0.000635
0.000548
0.000396
0.000378
0.000393
0.000420
0.000488
0.000509
0.000517
0.000459
0.000420
0.000501
0.000467
0.000362
0.000399
0.000417
0.000262
0.000134
0.000207
0.000393
0.000441
0.000467
0.000443
0.000475
0.000454
0.000530
0.000596
0.000428
0.000268
0.000239
0.000333
0.000412
0.000493
0.000556
0.000496
0.000393
0.000341
0.000393
0.000472
0.000449
0.000433
0.000493
0.000483
0.000527
0.000569
0.000446
0.000304
0.000262
0.000383
0.000462
0.000380
0.000307
0.000223
0.000226
0.000260
0.000420
0.000456
0.000475
0.000435
0.000441
0.000462
0.000493
0.000493
0.000517
0.000470
0.000349
0.000236
0.000226
0.000333
0.000401
0.000475
0.000598
0.000609
0.000538
0.000556
0.000624
0.000512
0.000362
0.000346
0.000378
0.000378
0.000386
0.000325
0.000239
0.000207
0.000260
0.000409
0.000493
0.000422
0.000435
0.000443
0.000491
0.000577
0.000653
0.000619
0.000564
0.000585
0.000569
0.000477
0.000383
0.000323
0.000336
0.000296
0.000270
0.000265
0.000286
0.000325
0.000472
0.000614
0.000617
0.000546
0.000480
0.000291
0.000197
0.000228
0.000391
0.000480
0.000596
0.000724
0.000622
0.000551
0.000527
0.000572
0.000585
0.000493
0.000485
0.000501
0.000575
0.000658
0.000756
0.000643
0.000551
0.000533
0.000525
0.000409
0.000352
0.000454
0.000472
0.000362
0.000275
0.000257
0.000289
0.000349
0.000430
0.000435
0.000380
0.000372
0.000493
0.000554
0.000477
0.000396
0.000383
0.000386
0.000386
0.000493
0.000582
0.000525
0.000477
0.000446
0.000491
0.000506
0.000485
0.000464
0.000501
0.000567
0.000559
0.000470
0.000470
0.000488
0.000483
0.000462
0.000393
0.000399
0.000430
0.000522
0.000640
0.000674
0.000711
0.000753
0.000805
0.000729
0.000614
0.000485
0.000420
0.000475
0.000554
0.000567
0.000614
0.000690
0.000658
0.000643
0.000656
0.000614
0.000624
0.000538
0.000467
0.000438
0.000393
0.000404
0.000470
0.000504
0.000535
0.000596
0.000598
0.000522
0.000498
0.000483
0.000470
0.000477
0.000425
0.000378
0.000475
0.000514
0.000454
0.000404
0.000404
0.000414
0.000467
0.000475
0.000512
0.000512
0.000472
0.000454
0.000493
0.000519
0.000509
0.000519
0.000645
0.000635
0.000564
0.000491
0.000538
0.000462
0.000304
0.000265
0.000268
0.000307
0.000386
0.000470
0.000543
0.000598
0.000714
0.000679
0.000617
0.000512
0.000522
0.000517
0.000575
0.000580
0.000622
0.000648
0.000601
0.000538
0.000514
0.000590
0.000554
0.000491
0.000527
0.000522
0.000525
0.000546
0.000596
0.000509
0.000362
0.000315
0.000273
0.000299
0.000328
0.000454
0.000514
0.000588
0.000666
0.000779
0.000826
0.000787
0.000690
0.000598
0.000590
0.000546
0.000546
0.000535
0.000501
0.000488
0.000514
0.000588
0.000651
0.000661
0.000619
0.000577
0.000588
0.000690
0.000737
0.000753
0.000855
0.000879
0.000882
0.000850
0.000845
0.000829
0.000745
0.000546
0.000388
0.000430
0.000454
0.000485
0.000540
0.000627
0.000632
0.000530
0.000533
0.000475
0.000380
0.000354
0.000467
0.000577
0.000598
0.000567
0.000554
0.000611
0.000685
0.000693
0.000693
0.000648
0.000695
0.000693
0.000669
0.000645
0.000627
0.000624
0.000666
0.000690
0.000711
0.000648
0.000614
0.000580
0.000554
0.000590
0.000627
0.000580
0.000606
0.000640
0.000577
0.000472
0.000417
0.000483
0.000525
0.000519
0.000582
0.000653
0.000645
0.000580
0.000548
0.000509
0.000506
0.000514
0.000619
0.000771
0.000808
0.000798
0.000829
0.000792
0.000777
0.000666
0.000679
0.000658
0.000619
0.000611
0.000580
0.000598
0.000672
0.000742
0.000766
0.000643
0.000498
0.000417
0.000438
0.000483
0.000561
0.000577
0.000664
0.000661
0.000645
0.000632
0.000622
0.000480
0.000386
0.000509
0.000593
0.000598
0.000690
0.000779
0.000708
0.000593
0.000546
0.000580
0.000580
0.000530
0.000640
0.000727
0.000711
0.000653
0.000590
0.000517
0.000380
0.000310
0.000420
0.000412
0.000435
0.000467
0.000475
0.000425
0.000470
0.000525
0.000525
0.000451
0.000401
0.000393
0.000388
0.000378
0.000407
0.000414
0.000414
0.000483
0.000648
0.000790
0.000800
0.000672
0.000674
0.000698
0.000792
0.000826
0.000842
0.000811
0.000790
0.000819
0.000842
0.000735
0.000590
0.000540
0.000540
0.000598
0.000653
0.000656
0.000640
0.000682
0.000677
0.000664
0.000698
0.000790
0.000798
0.000700
0.000606
0.000493
0.000417
0.000483
0.000585
0.000559
0.000554
0.000624
0.000645
0.000648
0.000695
0.000792
0.000808
0.000805
0.000816
0.000732
0.000682
0.000658
0.000617
0.000509
0.000509
0.000648
0.000687
0.000561
0.000506
0.000554
0.000593
0.000603
0.000669
0.000748
0.000777
0.000748
0.000761
0.000735
0.000611
0.000596
0.000672
0.000677
0.000677
0.000766
0.000787
0.000700
0.000661
0.000653
0.000643
0.000572
0.000580
0.000632
0.000635
0.000622
0.000679
0.000695
0.000721
0.000703
0.000672
0.000658
0.000622
0.000572
0.000603
0.000580
0.000624
0.000656
0.000711
0.000763
0.000792
0.000737
0.000679
0.000627
0.000609
0.000677
0.000795
0.000824
0.000808
0.000863
0.000866
0.000832
0.000761
0.000700
0.000630
0.000561
0.000588
0.000567
0.000554
0.000572
0.000643
0.000687
0.000745
0.000811
0.000769
0.000666
0.000721
0.000792
0.000750
0.000643
0.000674
0.000651
0.000664
0.000685
0.000708
0.000685
0.000624
0.000651
0.000679
0.000732
0.000721
0.000606
0.000540
0.000504
0.000569
0.000653
0.000753
0.000840
0.000763
0.000727
0.000703
0.000716
0.000679
0.000666
0.000700
0.000777
0.000826
0.000855
0.000813
0.000805
0.000745
0.000693
0.000695
0.000679
0.000706
0.000672
0.000645
0.000637
0.000645
0.000632
0.000611
0.000651
0.000640
0.000645
0.000630
0.000682
0.000708
0.000706
0.000729
0.000719
0.000737
0.000742
0.000758
0.000732
0.000719
0.000753
0.000761
0.000732
0.000761
0.000716
0.000677
0.000658
0.000729
0.000719
0.000617
0.000643
0.000735
0.000703
0.000564
0.000554
0.000695
0.000727
0.000719
0.000769
0.000803
0.000803
0.000795
0.000832
0.000826
0.000763
0.000761
0.000837
0.000853
0.000729
0.000535
0.000412
0.000409
0.000477
0.000543
0.000661
0.000729
0.000779
0.000784
0.000735
0.000661
0.000551
0.000512
0.000472
0.000396
0.000396
0.000572
0.000677
0.000677
0.000624
0.000614
0.000554
0.000551
0.000643
0.000729
0.000756
0.000761
0.000651
0.000517
0.000493
0.000556
0.000661
0.000774
0.000834
0.000882
0.000879
0.000876
0.000808
0.000721
0.000695
0.000716
0.000745
0.000732
0.000790
0.000745
0.000737
0.000850
0.000879
0.000790
0.000703
0.000672
0.000658
0.000682
0.000745
0.000792
0.000795
0.000821
0.000858
0.000756
0.000548
0.000414
0.000472
0.000603
0.000700
0.000824
0.000871
0.000837
0.000774
0.000808
0.000740
0.000703
0.000672
0.000779
0.000847
0.000800
0.000735
0.000690
0.000627
0.000498
0.000470
0.000527
0.000540
0.000606
0.000643
0.000706
0.000682
0.000648
0.000666
0.000708
0.000706
0.000672
0.000682
0.000685
0.000708
0.000674
0.000664
0.000687
0.000735
0.000769
0.000748
0.000711
0.000661
0.000763
0.000800
0.000753
0.000735
0.000721
0.000719
0.000769
0.000771
0.000724
0.000700
0.000792
0.000805
0.000682
0.000596
0.000598
0.000533
0.000443
0.000401
0.000561
0.000714
0.000727
0.000824
0.000889
0.000756
0.000695
0.000756
0.000782
0.000708
0.000674
0.000714
0.000714
0.000685
0.000745
0.000798
0.000763
0.000748
0.000882
0.000950
0.000931
0.000868
0.000884
0.000840
0.000805
0.000769
0.000761
0.000735
0.000637
0.000664
0.000779
0.000798
0.000742
0.000690
0.000737
0.000769
0.000842
0.000824
0.000795
0.000732
0.000677
0.000732
0.000842
0.000858
0.000840
0.000842
0.000892
0.000900
0.000874
0.000866
0.000902
0.000866
0.000782
0.000708
0.000656
0.000619
0.000614
0.000564
0.000546
0.000535
0.000606
0.000742
0.000779
0.000719
0.000708
0.000679
0.000740
0.000834
0.000874
0.000727
0.000679
0.000711
0.000763
0.000703
0.000672
0.000719
0.000706
0.000690
0.000729
0.000737
0.000664
0.000627
0.000637
0.000677
0.000724
0.000706
0.000790
0.000821
0.000840
0.000892
0.000958
0.000879
0.000758
0.000711
0.000756
0.000742
0.000693
0.000737
0.000813
0.000853
0.000884
0.000892
0.000942
0.000887
0.000826
0.000792
0.000829
0.000819
0.000769
0.000756
0.000763
0.000761
0.000737
0.000753
0.000777
0.000729
0.000687
0.000648
0.000653
0.000622
0.000622
0.000661
0.000719
0.000761
0.000824
0.000889
0.000973
0.000931
0.000876
0.000792
0.000748
0.000732
0.000798
0.000850
0.000913
0.000963
0.000934
0.000908
0.000866
0.000811
0.000803
0.000866
0.000897
0.000853
0.000808
0.000805
0.000832
0.000777
0.000714
0.000690
0.000666
0.000653
0.000724
0.000753
0.000842
0.000926
0.000861
0.000769
0.000732
0.000640
0.000561
0.000611
0.000703
0.000761
0.000826
0.000808
0.000735
0.000648
0.000606
0.000637
0.000645
0.000653
0.000774
0.000913
0.000937
0.000921
0.000910
0.000858
0.000871
0.000763
0.000721
0.000698
0.000685
0.000763
0.000813
0.000769
0.000727
0.000706
0.000774
0.000834
0.000921
0.000913
0.000918
0.000855
0.000887
0.000937
0.000992
0.000973
0.000939
0.000929
0.000910
0.000803
0.000695
0.000627
0.000661
0.000724
0.000808
0.000858
0.000882
0.000923
0.000916
0.000897
0.000874
0.000758
0.000672
0.000687
0.000758
0.000750
0.000824
0.000837
0.000923
0.000895
0.000902
0.000861
0.000800
0.000837
0.000910
0.000897
0.000855
0.000845
0.000923
0.000918
0.000847
0.000735
0.000711
0.000735
0.000798
0.000798
0.000784
0.000735
0.000716
0.000742
0.000724
0.000622
0.000556
0.000577
0.000656
0.000630
0.000543
0.000530
0.000635
0.000737
0.000782
0.000758
0.000821
0.000800
0.000711
0.000635
0.000637
0.000538
0.000504
0.000551
0.000682
0.000790
0.000829
0.000819
0.000748
0.000656
0.000546
0.000564
0.000606
0.000677
0.000792
0.000826
0.000876
0.000921
0.000989
0.001042
0.000997
0.000905
0.000792
0.000808
0.000811
0.000832
0.000858
0.000792
0.000716
0.000669
0.000711
0.000782
0.000855
0.000889
0.000847
0.000808
0.000816
0.000842
0.000819
0.000766
0.000771
0.000745
0.000745
0.000750
0.000813
0.000845
0.000850
0.000879
0.000889
0.000866
0.000853
0.000840
0.000887
0.000811
0.000816
0.000782
0.000808
0.000832
0.000811
0.000790
0.000782
0.000803
0.000834
0.000779
0.000808
0.000824
0.000779
0.000661
0.000651
0.000708
0.000763
0.000790
0.000900
0.000884
0.000803
0.000648
0.000577
0.000546
0.000538
0.000577
0.000575
0.000477
0.000514
0.000609
0.000695
0.000732
0.000863
0.000897
0.000992
0.001018
0.001044
0.001010
0.000986
0.000947
0.000879
0.000779
0.000732
0.000724
0.000790
0.000884
0.000937
0.000952
0.000971
0.000958
0.001018
0.001076
0.001034
0.000955
0.000937
0.000926
0.000965
0.000984
0.000902
0.000861
0.000834
0.000798
0.000853
0.000952
0.001026
0.000997
0.000952
0.000929
0.000863
0.000711
0.000627
0.000651
0.000719
0.000761
0.000795
0.000853
0.000892
0.000929
0.000984
0.000989
0.000947
0.000861
0.000897
0.000952
0.000939
0.000876
0.000874
0.000918
0.000861
0.000855
0.000871
0.000874
0.000874
0.000840
0.000850
0.000845
0.000808
0.000803
0.000832
0.000855
0.000897
0.000882
0.000913
0.000887
0.000887
0.000858
0.000895
0.000884
0.000834
0.000902
0.001042
0.001107
0.001034
0.000997
0.000989
0.000968
0.000923
0.000908
0.000918
0.000858
0.000816
0.000805
0.000845
0.000834
0.000842
0.000895
0.000931
0.000902
0.000897
0.000918
0.000958
0.000952
0.000900
0.000834
0.000824
0.000861
0.000960
0.000997
0.001047
0.001005
0.000960
0.000821
0.000811
0.000756
0.000669
0.000685
0.000745
0.000840
0.000905
0.000937
0.000944
0.000910
0.000921
0.000934
0.001013
0.000952
0.000863
0.000840
0.000853
0.000795
0.000784
0.000868
0.000884
0.000868
0.000955
0.000944
0.000926
0.000868
0.000897
0.000892
0.000876
0.000847
0.000889
0.000790
0.000750
0.000774
0.000792
0.000845
0.000937
0.000992
0.001013
0.000944
0.000879
0.000905
0.000931
0.000937
0.000963
0.000929
0.000855
0.000824
0.000850
0.000842
0.000758
0.000719
0.000737
0.000763
0.000861
0.000981
0.001044
0.000929
0.000855
0.000837
0.000821
0.000845
0.000863
0.000832
0.000887
0.000976
0.001021
0.000989
0.000929
0.000944
0.000960
0.000965
0.000963
0.000918
0.000963
0.000900
0.000868
0.000798
0.000771
0.000803
0.000931
0.000950
0.000955
0.000942
0.000973
0.000937
0.000834
0.000803
0.000832
0.000897
0.000929
0.000923
0.000976
0.000979
0.001005
0.000973
0.000866
0.000777
0.000811
0.000897
0.000937
0.000942
0.000937
0.000916
0.000850
0.000798
0.000805
0.000779
0.000811
0.000902
0.000884
0.000837
0.000816
0.000832
0.000866
0.000845
0.000892
0.000926
0.000929
0.000955
0.000994
0.000950
0.000939
0.000955
0.000963
0.000916
0.000921
0.000884
0.000861
0.000842
0.000905
0.000950
0.000958
0.000950
0.000965
0.001005
0.000992
0.000950
0.000937
0.000939
0.000952
0.000876
0.000882
0.000871
0.000868
0.000929
0.000981
0.000968
0.000910
0.000923
0.000942
0.000868
0.000803
0.000753
0.000766
0.000808
0.000884
0.000897
0.000866
0.000874
0.000921
0.000934
0.000863
0.000787
0.000784
0.000829
0.000821
0.000805
0.000850
0.000874
0.000895
0.000944
0.000997
0.001031
0.001057
0.001047
0.001007
0.000892
0.000816
0.000842
0.000840
0.000879
0.000955
0.000952
0.000863
0.000790
0.000879
0.000976
0.001034
0.001070
0.001065
0.000981
0.000892
0.000863
0.000813
0.000840
0.000847
0.000816
0.000792
0.000792
0.000819
0.000732
0.000700
0.000711
0.000803
0.000855
0.000934
0.000981
0.000929
0.000882
0.000819
0.000792
0.000808
0.000850
0.000923
0.000931
0.000939
0.000876
0.000834
0.000866
0.000902
0.000958
0.001031
0.001052
0.001065
0.001042
0.000939
0.000918
0.000939
0.000889
0.000853
0.000790
0.000816
0.000858
0.000866
0.000926
0.000968
0.001034
0.001060
0.001039
0.000992
0.000952
0.000965
0.000944
0.000918
0.000923
0.000937
0.000942
0.000897
0.000845
0.000819
0.000763
0.000824
0.000871
0.000942
0.000947
0.001000
0.001034
0.001031
0.001042
0.001026
0.000992
0.001015
0.001039
0.001042
0.001036
0.001007
0.000947
0.000866
0.000834
0.000863
0.000929
0.001047
0.001070
0.001010
0.000923
0.000923
0.000981
0.001002
0.000981
0.000994
0.001015
0.001000
0.000981
0.000963
0.000950
0.000950
0.000944
0.000992
0.000992
0.000971
0.000976
0.000971
0.001007
0.001049
0.001078
0.001094
0.001139
0.001115
0.001084
0.001102
0.001089
0.001078
0.001047
0.001070
0.001042
0.001000
0.000984
0.001049
0.001021
0.000931
0.000942
0.000958
0.000942
0.000979
0.000992
0.000937
0.000837
0.000682
0.000714
0.000853
0.000910
0.000834
0.000853
0.000937
0.000971
0.000929
0.000934
0.000968
0.000913
0.000908
0.000929
0.000923
0.000821
0.000819
0.000829
0.000821
0.000795
0.000826
0.000866
0.000926
0.000994
0.000994
0.000997
0.001021
0.001002
0.001042
0.001049
0.000976
0.000913
0.000889
0.000845
0.000879
0.000923
0.000871
0.000855
0.000952
0.001002
0.001036
0.001034
0.001036
0.000965
0.000889
0.000840
0.000916
0.000908
0.000913
0.000976
0.000963
0.000902
0.000895
0.000963
0.001007
0.001018
0.001052
0.001042
0.001002
0.000929
0.000950
0.000950
0.000973
0.000965
0.000947
0.000944
0.000986
0.000858
0.000742
0.000832
0.000908
0.000958
0.000979
0.000958
0.000916
0.000866
0.000926
0.000984
0.000921
0.000803
0.000795
0.000837
0.000868
0.000900
0.000895
0.000963
0.001065
0.001107
0.001123
0.001094
0.001063
0.000989
0.000992
0.001002
0.000997
0.001057
0.001042
0.001047
0.001055
0.001015
0.000910
0.000798
0.000853
0.000955
0.001013
0.001042
0.001105
0.001073
0.001065
0.001047
0.001063
0.000984
0.000965
0.001005
0.000937
0.000829
0.000845
0.000866
0.000902
0.000798
0.000761
0.000748
0.000803
0.000821
0.000819
0.000782
0.000821
0.000913
0.000937
0.000997
0.001102
0.001097
0.001086
0.001063
0.000984
0.000866
0.000826
0.000816
0.000816
0.000847
0.000866
0.000897
0.000934
0.001000
0.001036
0.000984
0.000887
0.000853
0.000868
0.000897
0.000879
0.000905
0.000973
0.000981
0.000937
0.000923
0.001007
0.001000
0.000984
0.000992
0.001063
0.001034
0.000984
0.000963
0.000986
0.000950
0.000965
0.001065
0.001099
0.001081
0.001091
0.001042
0.001028
0.001000
0.000973
0.000926
0.000900
0.000923
0.001013
0.000979
0.000942
0.001002
0.001049
0.001028
0.001015
0.001018
0.001015
0.000984
0.000984
0.000923
0.000981
0.000997
0.001026
0.000986
0.000997
0.001010
0.000989
0.000984
0.000979
0.000971
0.000937
0.000944
0.000986
0.001023
0.001057
0.001131
0.001162
0.001120
0.001023
0.000981
0.000939
0.000965
0.001018
0.000986
0.001007
0.001028
0.001005
0.001034
0.001057
0.001049
0.001036
0.001015
0.001042
0.001047
0.001007
0.000950
0.000979
0.000971
0.000986
0.000971
0.000979
0.000908
0.000908
0.000937
0.001002
0.000976
0.001028
0.001068
0.001049
0.001023
0.001026
0.000981
0.000963
0.001023
0.001028
0.001023
0.001028
0.000963
0.000892
0.000887
0.000965
0.000939
0.000926
0.000879
0.000871
0.000850
0.000913
0.000963
0.001023
0.001047
0.001018
0.001000
0.000963
0.000874
0.000753
0.000669
0.000753
0.000808
0.000821
0.000905
0.001015
0.001010
0.001002
0.001007
0.001084
0.001073
0.001099
0.001149
0.001178
0.001157
0.001126
0.001118
0.001118
0.001081
0.001070
0.001057
0.001102
0.001068
0.000973
0.000887
0.000918
0.000931
0.000952
0.000931
0.000916
0.000923
0.000947
0.000968
0.000971
0.000963
0.000976
0.001021
0.001042
0.001023
0.001042
0.001042
0.001115
0.001068
0.001042
0.000994
0.000986
0.000960
0.000876
0.000874
0.000913
0.000923
0.000918
0.000937
0.000979
0.000984
0.001042
0.001039
0.001044
0.000994
0.000958
0.000968
0.000929
0.000908
0.000887
0.000892
0.001000
0.001055
0.001063
0.001026
0.001028
0.001070
0.001086
0.001102
0.001094
0.001078
0.001115
0.001118
0.001081
0.001034
0.001026
0.000986
0.001007
0.001089
0.001107
0.001081
0.001084
0.001021
0.001034
0.001055
0.001005
0.000913
0.000926
0.000997
0.001007
0.001000
0.000944
0.000905
0.000889
0.000861
0.000921
0.000968
0.000968
0.000905
0.000918
0.000952
0.000934
0.000900
0.000918
0.000929
0.000934
0.000947
0.000947
0.000939
0.000923
0.000963
0.000960
0.000973
0.001047
0.001115
0.001149
0.001126
0.001123
0.001094
0.001094
0.001068
0.001010
0.000979
0.000989
0.001065
0.001128
0.001089
0.001078
0.001063
0.001028
0.001031
0.001052
0.001057
0.001026
0.001039
0.001057
0.001094
0.001089
0.001057
0.001049
0.001057
0.001065
0.001070
0.001068
0.001052
0.001063
0.000997
0.001010
0.001084
0.001144
0.001123
0.001065
0.001070
0.001081
0.001023
0.000955
0.000947
0.000958
0.001023
0.001089
0.001042
0.001065
0.001107
0.001133
0.001120
0.000984
0.000931
0.000934
0.000960
0.001044
0.001055
0.000981
0.000950
0.000992
0.001026
0.001026
0.001013
0.001023
0.001002
0.001031
0.001065
0.001120
0.001141
0.001115
0.001070
0.001015
0.000968
0.001000
0.001018
0.000976
0.000916
0.000902
0.000805
0.000800
0.000866
0.000986
0.001034
0.001112
0.001188
0.001199
0.001068
0.001047
0.001036
0.001007
0.000992
0.001039
0.001123
0.001115
0.001081
0.001060
0.001031
0.001060
0.001063
0.001076
0.001118
0.001123
0.001057
0.001044
0.001015
0.001021
0.001049
0.001118
0.001144
0.001233
0.001112
0.001065
0.001078
0.001078
0.001084
0.001060
0.000994
0.000992
0.001070
0.001110
0.001084
0.001107
0.001120
0.001120
0.001055
0.001052
0.001070
0.001081
0.001042
0.001099
0.001131
0.001144
0.001118
0.001065
0.001010
0.001028
0.001028
0.001015
0.000986
0.001068
0.001139
0.001144
0.001078
0.001031
0.001007
0.000939
0.000934
0.000952
0.000892
0.000923
0.000984
0.001021
0.001070
0.001091
0.001123
0.001147
0.001118
0.001149
0.001120
0.001063
0.001068
0.001078
0.001060
0.001086
0.001089
0.001065
0.001052
0.001049
0.001042
0.001044
0.001052
0.001105
0.001141
0.001162
0.001097
0.001057
0.000997
0.001031
0.001052
0.001070
0.000997
0.001034
0.001097
0.001105
0.001097
0.001076
0.001047
0.001099
0.001091
0.001073
0.001044
0.001028
0.001065
0.001110
0.001128
0.001160
0.001141
0.001105
0.001099
0.001044
0.000955
0.000921
0.000950
0.001026
0.001094
0.001188
0.001209
0.001175
0.001162
0.001073
0.001021
0.001039
0.001023
0.001063
0.001073
0.001097
0.001107
0.001052
0.001086
0.001105
0.001099
0.001136
0.001157
0.001162
0.001157
0.001112
0.001115
0.001089
0.001000
0.001039
0.001097
0.001152
0.001123
0.001060
0.000986
0.000884
0.000847
0.000902
0.000921
0.000942
0.000994
0.001052
0.001057
0.001118
0.001089
0.001031
0.000960
0.000913
0.000929
0.000934
0.000968
0.001000
0.001034
0.001105
0.001084
0.001044
0.000939
0.000832
0.000913
0.001018
0.001034
0.001128
0.001139
0.001168
0.001188
0.001149
0.001141
0.001115
0.001042
0.001057
0.001049
0.001086
0.001123
0.001068
0.000997
0.001055
0.001084
0.001168
0.001147
0.001168
0.001149
0.001094
0.001065
0.001094
0.001055
0.001102
0.001091
0.001089
0.001091
0.001084
0.001063
0.001047
0.001021
0.001026
0.001042
0.001157
0.001141
0.001152
0.001149
0.001173
0.001152
0.001141
0.001136
0.001131
0.001049
0.001007
0.001015
0.001018
0.000937
0.000929
0.001034
0.001141
0.001089
0.001089
0.001068
0.001055
0.001094
0.001070
0.001070
0.001115
0.001139
0.001120
0.001099
0.001089
0.001055
0.001105
0.001094
0.001110
0.001026
0.000902
0.000874
0.000892
0.000971
0.001002
0.001031
0.001031
0.001047
0.001081
0.001118
0.001139
0.001091
0.001102
0.001141
0.001194
0.001191
0.001149
0.001107
0.001015
0.000976
0.001002
0.001000
0.001044
0.001126
0.001154
0.001126
0.001089
0.001084
0.001021
0.001007
0.001015
0.000965
0.000944
0.000931
0.000934
0.000934
0.001015
0.001078
0.001089
0.001044
0.001089
0.001110
0.001118
0.001052
0.001007
0.000971
0.000968
0.000986
0.000986
0.000971
0.000994
0.001015
0.001060
0.001091
0.001123
0.001144
0.001110
0.001076
0.001068
0.001057
0.001089
0.001112
0.001115
0.001136
0.001157
0.001173
0.001144
0.001073
0.001044
0.001063
0.001052
0.001023
0.001044
0.001065
0.001081
0.001047
0.000918
0.000863
0.000921
0.000963
0.001000
0.001010
0.001031
0.001115
0.001141
0.001084
0.001055
0.000997
0.000960
0.000916
0.000926
0.000958
0.000960
0.000976
0.001063
0.001091
0.001060
0.000942
0.000900
0.000921
0.001005
0.001052
0.001052
0.001007
0.000997
0.000992
0.001052
0.001039
0.001044
0.001052
0.001102
0.001097
0.001089
0.001047
0.001052
0.001105
0.001136
0.001133
0.001086
0.001047
0.001089
0.001055
0.001076
0.001102
0.001112
0.001013
0.000971
0.000973
0.000905
0.000866
0.000968
0.001021
0.001076
0.001147
0.001115
0.001034
0.000960
0.000984
0.000973
0.000942
0.000981
0.001026
0.001055
0.001060
0.001120
0.001094
0.001052
0.001084
0.001144
0.001131
0.001089
0.001031
0.000997
0.000968
0.000989
0.001002
0.001018
0.001026
0.001065
0.001091
0.001097
0.001063
0.000976
0.000926
0.000931
0.000918
0.001007
0.001078
0.001034
0.001010
0.001052
0.001070
0.001078
0.001055
0.001078
0.001073
0.001052
0.001073
0.001073
0.001015
0.001068
0.001118
0.001149
0.001141
0.001191
0.001149
0.001097
0.001120
0.001157
0.001112
0.001070
0.001018
0.001089
0.001076
0.001031
0.001039
0.001073
0.001089
0.001102
0.001131
0.001091
0.001031
0.001068
0.001123
0.001133
0.001126
0.001091
0.001097
0.001036
0.000971
0.001018
0.001042
0.001028
0.000931
0.000947
0.000955
0.000965
0.001028
0.001120
0.001131
0.001118
0.001144
0.001128
0.001060
0.001018
0.001036
0.001047
0.001005
0.000973
0.000992
0.001018
0.001086
0.001073
0.001057
0.001042
0.001034
0.001099
0.001065
0.001028
0.001002
0.001039
0.001081
0.001110
0.001115
0.001165
0.001162
0.001110
0.001086
0.001042
0.000986
0.000958
0.000997
0.001042
0.001005
0.001047
0.001078
0.001078
0.001073
0.001112
0.001126
0.001105
0.001152
0.001191
0.001181
0.001188
0.001144
0.001162
0.001131
0.001097
0.001089
0.001084
0.001010
0.000992
0.001026
0.001118
0.001147
0.001139
0.001115
0.001044
0.001002
0.001068
0.001118
0.001144
0.001139
0.001141
0.001147
0.001063
0.001094
0.001149
0.001110
0.001131
0.001183
0.001246
0.001207
0.001175
0.001173
0.001160
0.001123
0.001120
0.001036
0.001068
0.001063
0.001133
0.001217
0.001160
0.001044
0.000913
0.000892
0.001007
0.001102
0.001118
0.001141
0.001123
0.001094
0.001073
0.001094
0.001126
0.001057
0.001036
0.001023
0.001021
0.001049
0.001063
0.001112
0.001060
0.000997
0.000968
0.001018
0.001047
0.001036
0.001084
0.001105
0.001107
0.001086
0.001136
0.001110
0.001115
0.001128
0.001149
0.001147
0.001120
0.001133
0.001149
0.001110
0.001120
0.001115
0.001133
0.001139
0.001168
0.001165
0.001139
0.001139
0.001131
0.001133
0.001099
0.001068
0.001094
0.001110
0.001131
0.001160
0.001097
0.001070
0.001073
0.001070
0.001081
0.001034
0.001036
0.001010
0.000979
0.000997
0.001076
0.001099
0.001120
0.001070
0.001084
0.001068
0.001042
0.001073
0.001099
0.001036
0.001034
0.001049
0.001089
0.001076
0.001133
0.001097
0.001099
0.001110
0.001110
0.001102
0.001052
0.001007
0.000997
0.001036
0.001136
0.001160
0.001115
0.001065
0.001055
0.001055
0.001042
0.000986
0.000955
0.000986
t0(sec) = 0.000000E+0
dt(sec) = 4.000000E-10
F3:INSP "
DESCRIPTOR_NAME    : WAVEDESC           
TEMPLATE_NAME      : LECROY_2_3         
COMM_TYPE          : word               
COMM_ORDER         : HIFIRST            
WAVE_DESCRIPTOR    : 346                
USER_TEXT          : 0                  
RES_DESC1          : 0                  
TRIGTIME_ARRAY     : 0                  
RIS_TIME_ARRAY     : 0                  
RES_ARRAY1         : 0                  
WAVE_ARRAY_1       : 9952               
WAVE_ARRAY_2       : 0                  
RES_ARRAY2         : 0                  
RES_ARRAY3         : 0                  
INSTRUMENT_NAME    : LECROYHDO6104      
INSTRUMENT_NUMBER  : 6308               
TRACE_LABEL        :                    
RESERVED1          : 4976               
RESERVED2          : 0                  
WAVE_ARRAY_COUNT   : 4976               
PNTS_PER_SCREEN    : 5000               
FIRST_VALID_PNT    : 0                  
LAST_VALID_PNT     : 4975               
FIRST_POINT        : 0                  
SPARSING_FACTOR    : 1                  
SEGMENT_INDEX      : 0                  
SUBARRAY_COUNT     : 1                  
SWEEPS_PER_ACQ     : 200                
POINTS_PER_PAIR    : 0                  
PAIR_OFFSET        : 0                  
VERTICAL_GAIN      : 2.4989e-006        
VERTICAL_OFFSET    : 1.6500e-002        
MAX_VALUE          : 3.0578e+004        
MIN_VALUE          : 1.4827e+004        
NOMINAL_BITS       : 16                 
NOM_SUBARRAY_COUNT : 1                  
HORIZ_INTERVAL     : 4.0000e-010        
HORIZ_OFFSET       : -2.00000000e-007   
PIXEL_OFFSET       : -2.10000000e-007   
VERTUNIT           : Unit Name = V
HORUNIT            : Unit Name = S
HORIZ_UNCERTAINTY  : 1.0000e-012        
TRIGGER_TIME       : Date = APR 17, 2024, Time = 19:17:34.858259610
ACQ_DURATION       : 1.0049e+001        
RECORD_TYPE        : single_sweep       
PROCESSING_DONE    : no_processing      
RESERVED5          : 0                  
RIS_SWEEPS         : 1                  
TIMEBASE           : 200_ns/div         
VERT_COUPLING      : DC_50_Ohms         
PROBE_ATT          : 1.0000e+000        
FIXED_VERT_GAIN    : 5_mV/div           
BANDWIDTH_LIMIT    : off                
VERTICAL_VERNIER   : 1.0000e+000        
ACQ_VERT_OFFSET    : 0.0000e+000        
WAVE_SOURCE        : UNKNOWN            
"
0.000445
0.000467
0.000462
0.000462
0.000422
0.000432
0.000475
0.000452
0.000430
0.000500
0.000452
0.000450
0.000457
0.000470
0.000440
0.000450
0.000470
0.000442
0.000420
0.000470
0.000412
0.000400
0.000462
0.000435
0.000417
0.000465
0.000465
0.000430
0.000430
0.000480
0.000440
0.000430
0.000430
0.000465
0.000417
0.000455
0.000457
0.000457
0.000447
0.000500
0.000447
0.000440
0.000467
0.000457
0.000415
0.000475
0.000447
0.000455
0.000402
0.000497
0.000442
0.000420
0.000420
0.000445
0.000407
0.000445
0.000427
0.000422
0.000417
0.000495
0.000435
0.000442
0.000457
0.000475
0.000422
0.000465
0.000477
0.000452
0.000445
0.000500
0.000442
0.000432
0.000422
0.000462
0.000395
0.000440
0.000450
0.000442
0.000420
0.000452
0.000435
0.000425
0.000455
0.000482
0.000417
0.000442
0.000482
0.000432
0.000432
0.000482
0.000445
0.000460
0.000465
0.000477
0.000415
0.000435
0.000452
0.000432
0.000447
0.000482
0.000465
0.000422
0.000437
0.000477
0.000397
0.000432
0.000442
0.000432
0.000432
0.000470
0.000435
0.000447
0.000465
0.000477
0.000447
0.000457
0.000462
0.000460
0.000427
0.000472
0.000427
0.000435
0.000445
0.000465
0.000410
0.000430
0.000442
0.000430
0.000405
0.000450
0.000455
0.000440
0.000445
0.000495
0.000467
0.000470
0.000477
0.000470
0.000442
0.000490
0.000465
0.000445
0.000450
0.000487
0.000420
0.000430
0.000450
0.000437
0.000402
0.000455
0.000445
0.000452
0.000417
0.000467
0.000422
0.000437
0.000445
0.000450
0.000445
0.000502
0.000460
0.000455
0.000437
0.000470
0.000422
0.000432
0.000440
0.000445
0.000407
0.000457
0.000452
0.000422
0.000400
0.000442
0.000427
0.000445
0.000445
0.000452
0.000422
0.000472
0.000467
0.000442
0.000447
0.000485
0.000457
0.000457
0.000467
0.000457
0.000420
0.000455
0.000452
0.000437
0.000437
0.000442
0.000410
0.000445
0.000422
0.000427
0.000420
0.000440
0.000460
0.000447
0.000430
0.000450
0.000415
0.000450
0.000455
0.000480
0.000445
0.000450
0.000440
0.000432
0.000430
0.000437
0.000425
0.000437
0.000437
0.000475
0.000422
0.000450
0.000455
0.000447
0.000437
0.000490
0.000430
0.000445
0.000462
0.000462
0.000435
0.000450
0.000442
0.000470
0.000435
0.000470
0.000482
0.000462
0.000440
0.000482
0.000432
0.000435
0.000450
0.000442
0.000437
0.000475
0.000405
0.000407
0.000442
0.000480
0.000427
0.000452
0.000457
0.000460
0.000420
0.000480
0.000457
0.000432
0.000435
0.000450
0.000415
0.000475
0.000450
0.000437
0.000437
0.000467
0.000427
0.000452
0.000465
0.000480
0.000427
0.000482
0.000442
0.000455
0.000405
0.000450
0.000445
0.000425
0.000417
0.000460
0.000430
0.000465
0.000445
0.000435
0.000440
0.000470
0.000415
0.000447
0.000470
0.000470
0.000425
0.000465
0.000455
0.000460
0.000390
0.000455
0.000457
0.000417
0.000442
0.000457
0.000415
0.000445
0.000440
0.000447
0.000432
0.000487
0.000425
0.000447
0.000440
0.000447
0.000437
0.000465
0.000430
0.000412
0.000402
0.000465
0.000440
0.000425
0.000452
0.000477
0.000430
0.000445
0.000430
0.000462
0.000440
0.000462
0.000460
0.000455
0.000450
0.000462
0.000427
0.000435
0.000430
0.000412
0.000397
0.000425
0.000410
0.000440
0.000440
0.000475
0.000417
0.000435
0.000445
0.000462
0.000440
0.000465
0.000482
0.000437
0.000437
0.000470
0.000425
0.000452
0.000440
0.000437
0.000397
0.000435
0.000445
0.000445
0.000412
0.000457
0.000430
0.000437
0.000442
0.000472
0.000422
0.000495
0.000442
0.000442
0.000460
0.000482
0.000442
0.000452
0.000465
0.000470
0.000430
0.000447
0.000462
0.000432
0.000430
0.000475
0.000435
0.000440
0.000462
0.000455
0.000400
0.000442
0.000460
0.000445
0.000442
0.000460
0.000450
0.000477
0.000445
0.000490
0.000415
0.000485
0.000502
0.000447
0.000440
0.000485
0.000432
0.000447
0.000467
0.000450
0.000447
0.000465
0.000457
0.000452
0.000435
0.000475
0.000410
0.000435
0.000417
0.000457
0.000435
0.000452
0.000465
0.000445
0.000432
0.000462
0.000437
0.000435
0.000452
0.000425
0.000415
0.000450
0.000425
0.000442
0.000435
0.000447
0.000470
0.000457
0.000452
0.000462
0.000380
0.000395
0.000392
0.000427
0.000417
0.000507
0.000477
0.000502
0.000495
0.000447
0.000410
0.000445
0.000450
0.000450
0.000460
0.000465
0.000405
0.000360
0.000385
0.000410
0.000427
0.000507
0.000532
0.000580
0.000517
0.000497
0.000425
0.000352
0.000355
0.000395
0.000387
0.000470
0.000455
0.000457
0.000462
0.000480
0.000437
0.000507
0.000485
0.000460
0.000367
0.000385
0.000335
0.000335
0.000360
0.000437
0.000465
0.000437
0.000460
0.000467
0.000392
0.000447
0.000440
0.000472
0.000525
0.000552
0.000530
0.000522
0.000435
0.000395
0.000350
0.000362
0.000400
0.000417
0.000430
0.000485
0.000432
0.000445
0.000450
0.000505
0.000555
0.000592
0.000572
0.000472
0.000337
0.000325
0.000260
0.000275
0.000305
0.000347
0.000320
0.000335
0.000360
0.000417
0.000472
0.000640
0.000682
0.000677
0.000622
0.000577
0.000502
0.000522
0.000555
0.000545
0.000502
0.000487
0.000430
0.000410
0.000362
0.000427
0.000435
0.000455
0.000427
0.000380
0.000310
0.000297
0.000267
0.000307
0.000385
0.000480
0.000485
0.000575
0.000632
0.000605
0.000605
0.000547
0.000492
0.000357
0.000205
0.000167
0.000057
0.000045
0.000127
0.000232
0.000290
0.000477
0.000617
0.000755
0.000817
0.000957
0.001027
0.000982
0.000875
0.000745
0.000490
0.000295
0.000042
-0.000167
-0.000322
-0.000435
-0.000582
-0.000682
-0.000812
-0.000897
-0.001062
-0.001137
-0.001232
-0.001299
-0.001374
-0.001444
-0.001659
-0.001827
-0.002042
-0.002159
-0.002294
-0.002309
-0.002259
-0.002087
-0.001917
-0.001649
-0.001462
-0.001339
-0.001294
-0.001187
-0.001172
-0.001070
-0.001022
-0.000957
-0.000987
-0.001045
-0.001159
-0.001254
-0.001269
-0.001207
-0.001154
-0.001085
-0.001085
-0.001035
-0.001022
-0.000970
-0.000937
-0.000897
-0.000855
-0.000747
-0.000752
-0.000717
-0.000762
-0.000825
-0.000885
-0.000937
-0.000935
-0.000912
-0.000822
-0.000710
-0.000607
-0.000517
-0.000480
-0.000455
-0.000475
-0.000475
-0.000545
-0.000607
-0.000652
-0.000697
-0.000785
-0.000775
-0.000720
-0.000615
-0.000537
-0.000360
-0.000250
-0.000190
-0.000165
-0.000167
-0.000225
-0.000315
-0.000465
-0.000595
-0.000720
-0.000812
-0.000847
-0.000782
-0.000672
-0.000555
-0.000470
-0.000367
-0.000210
-0.000100
-0.000065
-0.000000
0.000020
-0.000018
-0.000130
-0.000200
-0.000345
-0.000495
-0.000587
-0.000617
-0.000675
-0.000607
-0.000582
-0.000480
-0.000415
-0.000287
-0.000260
-0.000125
-0.000053
0.000025
0.000020
0.000055
0.000080
-0.000028
-0.000147
-0.000185
-0.000320
-0.000415
-0.000500
-0.000530
-0.000565
-0.000542
-0.000492
-0.000427
-0.000365
-0.000247
-0.000160
0.000005
0.000137
0.000210
0.000150
0.000107
0.000037
-0.000070
-0.000232
-0.000260
-0.000347
-0.000390
-0.000412
-0.000400
-0.000405
-0.000347
-0.000305
-0.000242
-0.000240
-0.000147
-0.000177
-0.000125
-0.000145
-0.000150
-0.000197
-0.000197
-0.000140
-0.000175
-0.000172
-0.000097
-0.000130
-0.000077
-0.000053
-0.000020
-0.000092
-0.000060
-0.000025
-0.000013
-0.000008
0.000002
-0.000058
-0.000112
-0.000112
-0.000095
-0.000132
-0.000087
-0.000060
-0.000067
-0.000110
-0.000100
-0.000145
-0.000155
-0.000172
-0.000195
-0.000310
-0.000370
-0.000387
-0.000370
-0.000342
-0.000215
-0.000152
-0.000092
-0.000045
0.000012
-0.000033
-0.000005
0.000070
0.000030
0.000047
0.000105
0.000022
-0.000003
-0.000035
-0.000055
-0.000082
-0.000100
-0.000117
-0.000157
-0.000200
-0.000162
-0.000177
-0.000190
-0.000122
-0.000020
-0.000028
0.000085
0.000145
0.000172
0.000150
0.000165
0.000117
0.000045
-0.000010
-0.000025
-0.000150
-0.000185
-0.000262
-0.000295
-0.000315
-0.000255
-0.000160
-0.000100
-0.000000
0.000140
0.000152
0.000207
0.000267
0.000285
0.000252
0.000237
0.000175
0.000050
-0.000015
-0.000075
-0.000187
-0.000195
-0.000212
-0.000255
-0.000282
-0.000212
-0.000155
-0.000100
0.000012
0.000172
0.000210
0.000247
0.000272
0.000265
0.000165
0.000160
0.000092
0.000022
-0.000085
-0.000107
-0.000275
-0.000295
-0.000252
-0.000212
-0.000165
-0.000048
0.000040
0.000077
0.000150
0.000217
0.000205
0.000205
0.000182
0.000155
0.000042
0.000012
-0.000003
-0.000082
-0.000092
-0.000018
-0.000067
-0.000010
0.000010
0.000027
0.000047
0.000087
0.000085
0.000102
0.000077
0.000097
0.000025
0.000005
-0.000000
0.000010
-0.000035
0.000047
0.000070
0.000057
0.000072
0.000132
0.000077
0.000092
0.000075
0.000082
0.000037
0.000042
0.000047
0.000030
0.000047
0.000072
0.000060
0.000050
0.000102
0.000145
0.000120
0.000190
0.000202
0.000177
0.000185
0.000210
0.000155
0.000120
0.000047
0.000017
-0.000082
-0.000087
-0.000090
-0.000067
-0.000023
0.000102
0.000127
0.000152
0.000187
0.000220
0.000130
0.000152
0.000100
0.000047
-0.000000
0.000015
-0.000060
-0.000070
-0.000065
-0.000008
-0.000010
0.000097
0.000152
0.000190
0.000240
0.000270
0.000250
0.000232
0.000222
0.000212
0.000147
0.000120
0.000072
0.000025
-0.000035
0.000002
-0.000000
0.000052
0.000120
0.000167
0.000157
0.000197
0.000220
0.000187
0.000172
0.000170
0.000102
0.000070
0.000012
-0.000018
-0.000112
-0.000080
-0.000053
-0.000015
0.000042
0.000185
0.000222
0.000227
0.000310
0.000335
0.000307
0.000250
0.000195
0.000125
0.000075
0.000085
0.000020
0.000012
0.000035
0.000060
0.000040
0.000112
0.000160
0.000172
0.000180
0.000237
0.000205
0.000172
0.000157
0.000150
0.000067
0.000035
-0.000005
0.000017
0.000005
0.000030
0.000105
0.000122
0.000150
0.000240
0.000190
0.000212
0.000262
0.000237
0.000195
0.000222
0.000170
0.000120
0.000082
0.000095
0.000040
0.000060
0.000070
0.000140
0.000137
0.000205
0.000230
0.000242
0.000242
0.000305
0.000237
0.000230
0.000187
0.000115
0.000060
0.000112
0.000057
0.000090
0.000085
0.000105
0.000130
0.000160
0.000207
0.000245
0.000237
0.000285
0.000280
0.000257
0.000210
0.000180
0.000125
0.000087
0.000060
0.000042
0.000010
0.000090
0.000087
0.000145
0.000167
0.000235
0.000285
0.000302
0.000280
0.000287
0.000222
0.000157
0.000135
0.000070
0.000007
0.000027
-0.000018
-0.000023
0.000042
0.000065
0.000115
0.000207
0.000255
0.000277
0.000305
0.000342
0.000307
0.000310
0.000255
0.000247
0.000202
0.000185
0.000155
0.000142
0.000152
0.000210
0.000160
0.000212
0.000277
0.000277
0.000275
0.000287
0.000300
0.000255
0.000210
0.000225
0.000137
0.000110
0.000090
0.000067
0.000087
0.000112
0.000155
0.000182
0.000187
0.000215
0.000180
0.000217
0.000205
0.000220
0.000187
0.000200
0.000192
0.000177
0.000157
0.000185
0.000165
0.000175
0.000210
0.000245
0.000242
0.000305
0.000320
0.000322
0.000302
0.000355
0.000290
0.000260
0.000235
0.000207
0.000152
0.000160
0.000137
0.000130
0.000135
0.000190
0.000187
0.000237
0.000247
0.000315
0.000290
0.000312
0.000312
0.000277
0.000202
0.000212
0.000180
0.000142
0.000142
0.000145
0.000075
0.000132
0.000145
0.000160
0.000202
0.000250
0.000257
0.000270
0.000262
0.000252
0.000212
0.000185
0.000192
0.000187
0.000137
0.000200
0.000162
0.000187
0.000212
0.000240
0.000225
0.000255
0.000255
0.000252
0.000222
0.000210
0.000232
0.000210
0.000185
0.000180
0.000165
0.000140
0.000152
0.000142
0.000120
0.000202
0.000205
0.000237
0.000277
0.000332
0.000312
0.000315
0.000295
0.000270
0.000232
0.000210
0.000182
0.000197
0.000152
0.000182
0.000147
0.000192
0.000197
0.000177
0.000192
0.000222
0.000192
0.000197
0.000200
0.000225
0.000155
0.000177
0.000182
0.000177
0.000152
0.000180
0.000187
0.000205
0.000225
0.000245
0.000227
0.000267
0.000255
0.000280
0.000292
0.000290
0.000255
0.000237
0.000235
0.000237
0.000220
0.000215
0.000232
0.000265
0.000245
0.000305
0.000307
0.000312
0.000297
0.000310
0.000295
0.000300
0.000262
0.000290
0.000227
0.000215
0.000197
0.000222
0.000210
0.000247
0.000200
0.000237
0.000297
0.000290
0.000287
0.000322
0.000290
0.000317
0.000280
0.000280
0.000272
0.000262
0.000217
0.000247
0.000182
0.000190
0.000162
0.000157
0.000172
0.000200
0.000222
0.000240
0.000285
0.000285
0.000277
0.000285
0.000260
0.000277
0.000270
0.000252
0.000232
0.000227
0.000220
0.000242
0.000207
0.000212
0.000225
0.000202
0.000222
0.000265
0.000242
0.000285
0.000272
0.000302
0.000245
0.000272
0.000277
0.000265
0.000232
0.000252
0.000260
0.000237
0.000255
0.000235
0.000210
0.000225
0.000192
0.000237
0.000237
0.000250
0.000227
0.000247
0.000220
0.000222
0.000190
0.000207
0.000207
0.000245
0.000212
0.000240
0.000235
0.000227
0.000282
0.000312
0.000282
0.000295
0.000312
0.000297
0.000302
0.000330
0.000272
0.000295
0.000267
0.000290
0.000270
0.000280
0.000252
0.000270
0.000280
0.000307
0.000312
0.000322
0.000315
0.000330
0.000327
0.000325
0.000280
0.000290
0.000242
0.000267
0.000230
0.000237
0.000230
0.000245
0.000247
0.000260
0.000262
0.000287
0.000262
0.000302
0.000295
0.000287
0.000240
0.000292
0.000282
0.000220
0.000247
0.000262
0.000250
0.000320
0.000257
0.000260
0.000297
0.000265
0.000250
0.000320
0.000287
0.000325
0.000327
0.000362
0.000312
0.000290
0.000240
0.000255
0.000275
0.000235
0.000255
0.000255
0.000240
0.000275
0.000237
0.000272
0.000252
0.000275
0.000220
0.000262
0.000270
0.000297
0.000247
0.000295
0.000297
0.000302
0.000312
0.000357
0.000315
0.000315
0.000332
0.000302
0.000260
0.000300
0.000277
0.000300
0.000282
0.000257
0.000247
0.000260
0.000230
0.000255
0.000240
0.000242
0.000285
0.000275
0.000272
0.000325
0.000307
0.000340
0.000345
0.000342
0.000312
0.000325
0.000320
0.000307
0.000230
0.000275
0.000287
0.000260
0.000282
0.000270
0.000242
0.000242
0.000250
0.000262
0.000222
0.000302
0.000287
0.000307
0.000332
0.000335
0.000305
0.000267
0.000282
0.000280
0.000255
0.000257
0.000255
0.000290
0.000272
0.000280
0.000265
0.000227
0.000280
0.000297
0.000242
0.000297
0.000297
0.000277
0.000270
0.000287
0.000285
0.000252
0.000277
0.000312
0.000255
0.000290
0.000250
0.000262
0.000220
0.000205
0.000232
0.000190
0.000212
0.000230
0.000200
0.000250
0.000287
0.000295
0.000290
0.000345
0.000322
0.000342
0.000307
0.000335
0.000267
0.000310
0.000285
0.000267
0.000257
0.000317
0.000270
0.000272
0.000262
0.000302
0.000262
0.000272
0.000332
0.000340
0.000310
0.000340
0.000330
0.000305
0.000297
0.000292
0.000252
0.000280
0.000275
0.000295
0.000282
0.000290
0.000285
0.000282
0.000265
0.000290
0.000250
0.000275
0.000285
0.000275
0.000252
0.000302
0.000302
0.000282
0.000290
0.000337
0.000290
0.000347
0.000325
0.000345
0.000337
0.000327
0.000305
0.000337
0.000327
0.000350
0.000282
0.000310
0.000327
0.000320
0.000295
0.000330
0.000300
0.000310
0.000282
0.000302
0.000270
0.000260
0.000287
0.000275
0.000242
0.000265
0.000250
0.000272
0.000262
0.000277
0.000280
0.000292
0.000312
0.000305
0.000300
0.000342
0.000262
0.000295
0.000267
0.000297
0.000300
0.000290
0.000310
0.000325
0.000285
0.000315
0.000300
0.000300
0.000305
0.000337
0.000280
0.000285
0.000300
0.000290
0.000260
0.000302
0.000277
0.000272
0.000277
0.000317
0.000290
0.000310
0.000330
0.000370
0.000340
0.000382
0.000365
0.000330
0.000340
0.000387
0.000337
0.000317
0.000305
0.000267
0.000227
0.000275
0.000267
0.000265
0.000250
0.000322
0.000302
0.000320
0.000335
0.000330
0.000315
0.000337
0.000342
0.000335
0.000340
0.000382
0.000327
0.000347
0.000345
0.000357
0.000272
0.000322
0.000322
0.000315
0.000287
0.000345
0.000272
0.000305
0.000300
0.000335
0.000300
0.000332
0.000312
0.000277
0.000257
0.000305
0.000255
0.000250
0.000267
0.000292
0.000277
0.000302
0.000325
0.000330
0.000285
0.000350
0.000320
0.000310
0.000317
0.000295
0.000272
0.000297
0.000292
0.000282
0.000287
0.000295
0.000287
0.000305
0.000320
0.000362
0.000322
0.000335
0.000327
0.000327
0.000290
0.000322
0.000312
0.000305
0.000332
0.000360
0.000332
0.000337
0.000320
0.000342
0.000330
0.000340
0.000327
0.000350
0.000357
0.000367
0.000317
0.000330
0.000360
0.000297
0.000287
0.000340
0.000330
0.000305
0.000347
0.000370
0.000330
0.000390
0.000342
0.000340
0.000310
0.000332
0.000307
0.000317
0.000317
0.000332
0.000315
0.000317
0.000307
0.000315
0.000252
0.000317
0.000300
0.000292
0.000322
0.000327
0.000322
0.000330
0.000340
0.000350
0.000317
0.000330
0.000325
0.000297
0.000272
0.000327
0.000287
0.000312
0.000317
0.000325
0.000300
0.000330
0.000312
0.000270
0.000327
0.000377
0.000327
0.000347
0.000327
0.000327
0.000327
0.000312
0.000325
0.000297
0.000325
0.000327
0.000302
0.000315
0.000335
0.000330
0.000287
0.000355
0.000310
0.000322
0.000327
0.000322
0.000312
0.000320
0.000335
0.000327
0.000312
0.000330
0.000360
0.000327
0.000327
0.000340
0.000310
0.000322
0.000367
0.000355
0.000305
0.000370
0.000340
0.000315
0.000315
0.000332
0.000287
0.000315
0.000300
0.000325
0.000295
0.000340
0.000340
0.000340
0.000342
0.000380
0.000342
0.000292
0.000342
0.000357
0.000292
0.000340
0.000330
0.000310
0.000270
0.000337
0.000320
0.000327
0.000310
0.000327
0.000300
0.000327
0.000340
0.000342
0.000312
0.000392
0.000370
0.000327
0.000375
0.000372
0.000327
0.000365
0.000392
0.000382
0.000322
0.000392
0.000362
0.000327
0.000342
0.000352
0.000282
0.000335
0.000325
0.000302
0.000315
0.000342
0.000325
0.000325
0.000320
0.000330
0.000297
0.000320
0.000352
0.000325
0.000312
0.000362
0.000340
0.000355
0.000357
0.000380
0.000352
0.000315
0.000322
0.000335
0.000300
0.000365
0.000320
0.000332
0.000340
0.000355
0.000330
0.000355
0.000357
0.000342
0.000315
0.000380
0.000342
0.000315
0.000360
0.000370
0.000325
0.000372
0.000370
0.000355
0.000355
0.000385
0.000370
0.000357
0.000352
0.000357
0.000330
0.000347
0.000357
0.000355
0.000337
0.000357
0.000325
0.000337
0.000365
0.000375
0.000332
0.000360
0.000365
0.000357
0.000340
0.000372
0.000327
0.000292
0.000320
0.000342
0.000285
0.000320
0.000335
0.000340
0.000357
0.000375
0.000362
0.000362
0.000357
0.000357
0.000342
0.000345
0.000345
0.000327
0.000300
0.000355
0.000302
0.000305
0.000307
0.000357
0.000330
0.000337
0.000362
0.000375
0.000322
0.000375
0.000337
0.000322
0.000337
0.000375
0.000327
0.000320
0.000330
0.000337
0.000292
0.000337
0.000332
0.000330
0.000335
0.000372
0.000345
0.000357
0.000370
0.000360
0.000330
0.000330
0.000347
0.000310
0.000290
0.000340
0.000270
0.000312
0.000322
0.000310
0.000270
0.000322
0.000325
0.000295
0.000305
0.000347
0.000312
0.000322
0.000372
0.000355
0.000325
0.000372
0.000360
0.000355
0.000355
0.000385
0.000330
0.000352
0.000325
0.000342
0.000322
0.000340
0.000362
0.000355
0.000350
0.000377
0.000365
0.000350
0.000377
0.000382
0.000315
0.000355
0.000340
0.000342
0.000327
0.000355
0.000307
0.000297
0.000337
0.000342
0.000307
0.000325
0.000335
0.000340
0.000340
0.000412
0.000357
0.000357
0.000380
0.000400
0.000325
0.000367
0.000340
0.000367
0.000330
0.000357
0.000355
0.000375
0.000345
0.000387
0.000340
0.000382
0.000367
0.000352
0.000332
0.000397
0.000335
0.000355
0.000402
0.000422
0.000375
0.000390
0.000372
0.000352
0.000370
0.000355
0.000362
0.000355
0.000365
0.000367
0.000312
0.000337
0.000347
0.000335
0.000320
0.000392
0.000372
0.000395
0.000397
0.000412
0.000362
0.000387
0.000420
0.000392
0.000400
0.000405
0.000367
0.000352
0.000352
0.000390
0.000352
0.000345
0.000380
0.000397
0.000367
0.000400
0.000372
0.000357
0.000360
0.000365
0.000357
0.000370
0.000385
0.000352
0.000320
0.000377
0.000332
0.000335
0.000337
0.000347
0.000327
0.000340
0.000335
0.000362
0.000375
0.000390
0.000385
0.000370
0.000360
0.000402
0.000325
0.000347
0.000372
0.000380
0.000330
0.000360
0.000360
0.000350
0.000357
0.000360
0.000377
0.000390
0.000357
0.000380
0.000357
0.000387
0.000367
0.000357
0.000355
0.000367
0.000307
0.000322
0.000330
0.000350
0.000355
0.000390
0.000377
0.000382
0.000360
0.000365
0.000360
0.000365
0.000390
0.000375
0.000352
0.000367
0.000390
0.000365
0.000380
0.000397
0.000362
0.000390
0.000400
0.000392
0.000390
0.000427
0.000400
0.000365
0.000372
0.000400
0.000352
0.000367
0.000342
0.000350
0.000335
0.000375
0.000342
0.000347
0.000370
0.000382
0.000322
0.000377
0.000385
0.000360
0.000352
0.000390
0.000360
0.000357
0.000362
0.000397
0.000380
0.000422
0.000430
0.000442
0.000382
0.000387
0.000397
0.000352
0.000352
0.000375
0.000327
0.000347
0.000327
0.000342
0.000307
0.000367
0.000345
0.000350
0.000352
0.000390
0.000395
0.000360
0.000380
0.000375
0.000360
0.000382
0.000345
0.000365
0.000337
0.000372
0.000325
0.000327
0.000350
0.000332
0.000325
0.000362
0.000365
0.000357
0.000372
0.000387
0.000360
0.000365
0.000350
0.000342
0.000320
0.000320
0.000322
0.000317
0.000322
0.000360
0.000337
0.000357
0.000377
0.000372
0.000370
0.000390
0.000380
0.000390
0.000350
0.000380
0.000355
0.000357
0.000367
0.000357
0.000332
0.000377
0.000370
0.000330
0.000315
0.000395
0.000345
0.000325
0.000365
0.000367
0.000320
0.000395
0.000370
0.000357
0.000352
0.000375
0.000375
0.000375
0.000387
0.000390
0.000370
0.000372
0.000352
0.000355
0.000340
0.000390
0.000362
0.000365
0.000395
0.000402
0.000360
0.000397
0.000395
0.000385
0.000357
0.000380
0.000370
0.000390
0.000377
0.000415
0.000360
0.000350
0.000360
0.000345
0.000347
0.000375
0.000352
0.000332
0.000325
0.000355
0.000335
0.000352
0.000375
0.000377
0.000367
0.000400
0.000397
0.000377
0.000350
0.000380
0.000355
0.000387
0.000385
0.000382
0.000367
0.000362
0.000347
0.000375
0.000382
0.000410
0.000385
0.000390
0.000382
0.000405
0.000355
0.000400
0.000355
0.000382
0.000377
0.000382
0.000375
0.000395
0.000370
0.000375
0.000352
0.000390
0.000385
0.000377
0.000400
0.000427
0.000367
0.000375
0.000355
0.000355
0.000375
0.000362
0.000380
0.000395
0.000380
0.000392
0.000360
0.000385
0.000375
0.000360
0.000372
0.000422
0.000385
0.000397
0.000375
0.000387
0.000347
0.000370
0.000357
0.000382
0.000360
0.000387
0.000372
0.000365
0.000377
0.000400
0.000352
0.000390
0.000372
0.000387
0.000390
0.000405
0.000377
0.000385
0.000392
0.000407
0.000375
0.000377
0.000395
0.000357
0.000362
0.000395
0.000370
0.000400
0.000375
0.000417
0.000365
0.000395
0.000382
0.000377
0.000382
0.000380
0.000380
0.000375
0.000372
0.000412
0.000357
0.000397
0.000397
0.000397
0.000380
0.000390
0.000402
0.000385
0.000382
0.000390
0.000375
0.000365
0.000347
0.000375
0.000355
0.000382
0.000367
0.000360
0.000380
0.000375
0.000347
0.000365
0.000385
0.000367
0.000352
0.000387
0.000355
0.000380
0.000350
0.000397
0.000382
0.000357
0.000360
0.000355
0.000337
0.000387
0.000347
0.000387
0.000392
0.000390
0.000377
0.000402
0.000402
0.000387
0.000375
0.000417
0.000387
0.000360
0.000350
0.000337
0.000327
0.000317
0.000335
0.000352
0.000360
0.000387
0.000400
0.000422
0.000390
0.000400
0.000382
0.000422
0.000400
0.000400
0.000405
0.000400
0.000392
0.000397
0.000370
0.000372
0.000327
0.000355
0.000355
0.000372
0.000342
0.000345
0.000345
0.000360
0.000350
0.000377
0.000372
0.000392
0.000407
0.000405
0.000437
0.000432
0.000412
0.000437
0.000405
0.000430
0.000392
0.000385
0.000357
0.000370
0.000337
0.000372
0.000340
0.000365
0.000367
0.000400
0.000355
0.000392
0.000397
0.000410
0.000395
0.000425
0.000422
0.000405
0.000385
0.000375
0.000337
0.000350
0.000317
0.000345
0.000365
0.000370
0.000360
0.000392
0.000407
0.000410
0.000382
0.000407
0.000407
0.000425
0.000390
0.000417
0.000372
0.000397
0.000367
0.000337
0.000340
0.000335
0.000325
0.000365
0.000360
0.000357
0.000357
0.000362
0.000382
0.000380
0.000377
0.000400
0.000385
0.000392
0.000390
0.000392
0.000372
0.000365
0.000345
0.000337
0.000340
0.000360
0.000315
0.000320
0.000345
0.000367
0.000337
0.000375
0.000370
0.000372
0.000332
0.000402
0.000402
0.000377
0.000380
0.000365
0.000347
0.000370
0.000362
0.000362
0.000382
0.000395
0.000385
0.000385
0.000422
0.000415
0.000385
0.000412
0.000417
0.000430
0.000417
0.000430
0.000422
0.000400
0.000385
0.000405
0.000385
0.000367
0.000365
0.000355
0.000355
0.000352
0.000342
0.000365
0.000350
0.000392
0.000360
0.000407
0.000440
0.000410
0.000400
0.000432
0.000405
0.000422
0.000422
0.000430
0.000420
0.000402
0.000405
0.000382
0.000360
0.000370
0.000355
0.000360
0.000347
0.000375
0.000322
0.000372
0.000380
0.000395
0.000350
0.000380
0.000370
0.000397
0.000367
0.000397
0.000382
0.000387
0.000382
0.000377
0.000357
0.000410
0.000392
0.000365
0.000372
0.000375
0.000345
0.000360
0.000360
0.000397
0.000357
0.000415
0.000400
0.000390
0.000382
0.000390
0.000392
0.000387
0.000377
0.000407
0.000395
0.000402
0.000395
0.000400
0.000412
0.000427
0.000400
0.000425
0.000430
0.000417
0.000397
0.000395
0.000392
0.000417
0.000390
0.000402
0.000365
0.000395
0.000382
0.000392
0.000362
0.000402
0.000385
0.000412
0.000422
0.000420
0.000385
0.000410
0.000392
0.000397
0.000400
0.000412
0.000400
0.000385
0.000387
0.000385
0.000375
0.000370
0.000400
0.000380
0.000360
0.000390
0.000370
0.000367
0.000385
0.000402
0.000342
0.000380
0.000380
0.000395
0.000385
0.000410
0.000382
0.000395
0.000387
0.000425
0.000387
0.000392
0.000410
0.000410
0.000410
0.000417
0.000410
0.000395
0.000372
0.000392
0.000370
0.000392
0.000402
0.000387
0.000382
0.000407
0.000400
0.000382
0.000382
0.000430
0.000377
0.000400
0.000412
0.000400
0.000380
0.000425
0.000392
0.000382
0.000402
0.000430
0.000390
0.000402
0.000417
0.000400
0.000352
0.000407
0.000382
0.000367
0.000395
0.000410
0.000392
0.000400
0.000390
0.000397
0.000387
0.000432
0.000412
0.000432
0.000385
0.000452
0.000370
0.000390
0.000390
0.000410
0.000377
0.000415
0.000405
0.000392
0.000397
0.000402
0.000400
0.000380
0.000407
0.000415
0.000400
0.000430
0.000400
0.000420
0.000415
0.000417
0.000372
0.000402
0.000420
0.000417
0.000400
0.000425
0.000407
0.000392
0.000395
0.000422
0.000380
0.000420
0.000410
0.000435
0.000395
0.000417
0.000385
0.000362
0.000352
0.000395
0.000370
0.000405
0.000415
0.000392
0.000367
0.000415
0.000392
0.000430
0.000420
0.000460
0.000425
0.000452
0.000455
0.000410
0.000422
0.000445
0.000412
0.000427
0.000412
0.000417
0.000377
0.000375
0.000395
0.000367
0.000347
0.000367
0.000337
0.000350
0.000370
0.000415
0.000327
0.000372
0.000397
0.000395
0.000390
0.000442
0.000417
0.000417
0.000422
0.000442
0.000382
0.000445
0.000425
0.000430
0.000390
0.000425
0.000417
0.000380
0.000402
0.000397
0.000335
0.000377
0.000402
0.000410
0.000365
0.000437
0.000407
0.000395
0.000397
0.000450
0.000405
0.000430
0.000432
0.000450
0.000387
0.000430
0.000415
0.000400
0.000397
0.000442
0.000375
0.000425
0.000420
0.000385
0.000355
0.000382
0.000360
0.000377
0.000365
0.000412
0.000377
0.000380
0.000445
0.000450
0.000392
0.000435
0.000420
0.000402
0.000422
0.000432
0.000427
0.000437
0.000415
0.000447
0.000410
0.000425
0.000420
0.000390
0.000390
0.000445
0.000397
0.000377
0.000417
0.000405
0.000370
0.000410
0.000425
0.000400
0.000387
0.000435
0.000402
0.000405
0.000380
0.000415
0.000397
0.000440
0.000420
0.000420
0.000425
0.000442
0.000415
0.000410
0.000422
0.000392
0.000382
0.000390
0.000407
0.000415
0.000387
0.000430
0.000412
0.000392
0.000390
0.000400
0.000382
0.000432
0.000380
0.000402
0.000410
0.000417
0.000395
0.000415
0.000382
0.000397
0.000382
0.000410
0.000387
0.000402
0.000387
0.000395
0.000402
0.000420
0.000400
0.000402
0.000407
0.000405
0.000395
0.000405
0.000407
0.000407
0.000405
0.000412
0.000387
0.000420
0.000400
0.000447
0.000407
0.000415
0.000387
0.000427
0.000385
0.000397
0.000390
0.000400
0.000350
0.000405
0.000362
0.000370
0.000370
0.000400
0.000345
0.000412
0.000407
0.000402
0.000375
0.000410
0.000367
0.000367
0.000370
0.000395
0.000340
0.000350
0.000357
0.000372
0.000370
0.000402
0.000387
0.000400
0.000420
0.000450
0.000392
0.000440
0.000422
0.000417
0.000387
0.000382
0.000382
0.000407
0.000365
0.000392
0.000387
0.000385
0.000407
0.000420
0.000410
0.000435
0.000415
0.000405
0.000402
0.000447
0.000387
0.000412
0.000407
0.000400
0.000392
0.000405
0.000422
0.000407
0.000395
0.000412
0.000392
0.000410
0.000435
0.000422
0.000372
0.000425
0.000442
0.000427
0.000407
0.000442
0.000387
0.000402
0.000410
0.000427
0.000395
0.000427
0.000420
0.000405
0.000372
0.000402
0.000385
0.000422
0.000422
0.000452
0.000395
0.000435
0.000427
0.000405
0.000385
0.000410
0.000395
0.000405
0.000417
0.000422
0.000385
0.000415
0.000430
0.000410
0.000405
0.000415
0.000395
0.000405
0.000367
0.000390
0.000362
0.000360
0.000355
0.000405
0.000365
0.000412
0.000380
0.000402
0.000435
0.000457
0.000415
0.000427
0.000422
0.000425
0.000422
0.000442
0.000395
0.000420
0.000367
0.000400
0.000412
0.000420
0.000382
0.000390
0.000390
0.000422
0.000375
0.000427
0.000412
0.000412
0.000395
0.000405
0.000402
0.000407
0.000372
0.000407
0.000392
0.000382
0.000395
0.000405
0.000402
0.000375
0.000362
0.000397
0.000385
0.000427
0.000365
0.000390
0.000397
0.000410
0.000395
0.000432
0.000410
0.000410
0.000395
0.000435
0.000382
0.000362
0.000375
0.000402
0.000415
0.000405
0.000415
0.000385
0.000365
0.000382
0.000382
0.000412
0.000400
0.000422
0.000370
0.000425
0.000392
0.000405
0.000422
0.000452
0.000427
0.000422
0.000445
0.000455
0.000410
0.000420
0.000420
0.000410
0.000405
0.000395
0.000402
0.000415
0.000387
0.000420
0.000387
0.000437
0.000402
0.000412
0.000407
0.000435
0.000420
0.000427
0.000427
0.000422
0.000417
0.000420
0.000425
0.000440
0.000425
0.000437
0.000437
0.000427
0.000420
0.000422
0.000392
0.000402
0.000410
0.000405
0.000397
0.000425
0.000435
0.000440
0.000405
0.000452
0.000445
0.000452
0.000467
0.000455
0.000435
0.000457
0.000422
0.000432
0.000427
0.000430
0.000382
0.000405
0.000400
0.000372
0.000377
0.000415
0.000415
0.000415
0.000415
0.000422
0.000395
0.000430
0.000415
0.000415
0.000400
0.000392
0.000382
0.000397
0.000415
0.000412
0.000412
0.000450
0.000407
0.000437
0.000420
0.000457
0.000410
0.000437
0.000417
0.000427
0.000400
0.000425
0.000422
0.000412
0.000425
0.000427
0.000382
0.000405
0.000425
0.000400
0.000387
0.000420
0.000385
0.000377
0.000397
0.000425
0.000385
0.000397
0.000385
0.000432
0.000387
0.000415
0.000392
0.000390
0.000407
0.000447
0.000405
0.000400
0.000417
0.000425
0.000415
0.000452
0.000445
0.000445
0.000447
0.000442
0.000430
0.000417
0.000407
0.000402
0.000405
0.000422
0.000412
0.000415
0.000432
0.000427
0.000407
0.000410
0.000427
0.000427
0.000375
0.000425
0.000432
0.000397
0.000385
0.000410
0.000415
0.000420
0.000427
0.000427
0.000422
0.000417
0.000415
0.000425
0.000415
0.000450
0.000430
0.000395
0.000422
0.000407
0.000395
0.000455
0.000420
0.000410
0.000442
0.000490
0.000437
0.000442
0.000425
0.000397
0.000415
0.000445
0.000425
0.000420
0.000445
0.000437
0.000395
0.000412
0.000407
0.000437
0.000402
0.000437
0.000427
0.000407
0.000410
0.000462
0.000417
0.000410
0.000442
0.000442
0.000385
0.000442
0.000412
0.000445
0.000420
0.000417
0.000407
0.000392
0.000407
0.000400
0.000380
0.000440
0.000372
0.000407
0.000405
0.000432
0.000400
0.000435
0.000432
0.000412
0.000412
0.000445
0.000440
0.000437
0.000445
0.000470
0.000455
0.000452
0.000440
0.000437
0.000412
0.000440
0.000420
0.000407
0.000400
0.000402
0.000390
0.000367
0.000382
0.000390
0.000372
0.000407
0.000402
0.000425
0.000442
0.000455
0.000417
0.000440
0.000397
0.000440
0.000387
0.000412
0.000387
0.000365
0.000367
0.000400
0.000360
0.000415
0.000395
0.000377
0.000375
0.000417
0.000392
0.000412
0.000397
0.000435
0.000405
0.000430
0.000460
0.000440
0.000422
0.000460
0.000445
0.000447
0.000437
0.000462
0.000437
0.000437
0.000437
0.000445
0.000425
0.000432
0.000430
0.000405
0.000412
0.000452
0.000390
0.000415
0.000425
0.000422
0.000392
0.000447
0.000442
0.000427
0.000410
0.000447
0.000420
0.000430
0.000412
0.000427
0.000417
0.000427
0.000425
0.000415
0.000412
0.000440
0.000395
0.000415
0.000420
0.000415
0.000397
0.000440
0.000450
0.000412
0.000390
0.000430
0.000365
0.000397
0.000422
0.000422
0.000417
0.000450
0.000410
0.000435
0.000442
0.000457
0.000405
0.000405
0.000435
0.000450
0.000392
0.000425
0.000432
0.000415
0.000417
0.000452
0.000397
0.000415
0.000432
0.000427
0.000420
0.000410
0.000397
0.000380
0.000365
0.000422
0.000397
0.000385
0.000427
0.000440
0.000410
0.000445
0.000455
0.000427
0.000407
0.000457
0.000412
0.000445
0.000415
0.000430
0.000387
0.000422
0.000407
0.000397
0.000397
0.000420
0.000410
0.000420
0.000402
0.000427
0.000360
0.000417
0.000407
0.000422
0.000402
0.000427
0.000400
0.000420
0.000390
0.000407
0.000405
0.000415
0.000410
0.000417
0.000417
0.000432
0.000382
0.000395
0.000377
0.000420
0.000370
0.000412
0.000415
0.000405
0.000415
0.000427
0.000435
0.000457
0.000452
0.000437
0.000417
0.000442
0.000420
0.000437
0.000407
0.000430
0.000412
0.000387
0.000420
0.000427
0.000382
0.000417
0.000397
0.000400
0.000412
0.000432
0.000417
0.000410
0.000432
0.000442
0.000415
0.000437
0.000417
0.000422
0.000425
0.000427
0.000440
0.000425
0.000432
0.000425
0.000397
0.000435
0.000442
0.000432
0.000422
0.000442
0.000442
0.000432
0.000427
0.000447
0.000410
0.000432
0.000425
0.000412
0.000415
0.000432
0.000420
0.000405
0.000425
0.000430
0.000405
0.000420
0.000430
0.000425
0.000420
0.000472
0.000410
0.000422
0.000420
0.000445
0.000415
0.000432
0.000410
0.000427
0.000415
0.000427
0.000407
0.000412
0.000425
0.000447
0.000385
0.000440
0.000435
0.000427
0.000415
0.000485
0.000430
0.000437
0.000435
0.000432
0.000402
0.000427
0.000422
0.000430
0.000410
0.000405
0.000397
0.000405
0.000397
0.000450
0.000415
0.000430
0.000457
0.000440
0.000430
0.000477
0.000435
0.000420
0.000435
0.000440
0.000377
0.000420
0.000380
0.000365
0.000375
0.000395
0.000400
0.000395
0.000430
0.000462
0.000422
0.000435
0.000445
0.000410
0.000415
0.000440
0.000410
0.000430
0.000420
0.000415
0.000405
0.000402
0.000402
0.000407
0.000400
0.000460
0.000437
0.000427
0.000435
0.000477
0.000425
0.000457
0.000445
0.000442
0.000430
0.000460
0.000450
0.000447
0.000420
0.000432
0.000420
0.000420
0.000420
0.000437
0.000415
0.000450
0.000440
0.000425
0.000425
0.000460
0.000430
0.000455
0.000430
0.000450
0.000430
0.000435
0.000450
0.000412
0.000462
0.000457
0.000387
0.000440
0.000430
0.000427
0.000430
0.000445
0.000405
0.000437
0.000425
0.000440
0.000422
0.000412
0.000405
0.000437
0.000427
0.000452
0.000437
0.000410
0.000392
0.000452
0.000415
0.000417
0.000410
0.000422
0.000410
0.000420
0.000372
0.000405
0.000377
0.000397
0.000365
0.000410
0.000425
0.000407
0.000387
0.000427
0.000402
0.000415
0.000425
0.000432
0.000425
0.000447
0.000432
0.000410
0.000422
0.000452
0.000435
0.000450
0.000447
0.000465
0.000427
0.000425
0.000447
0.000432
0.000397
0.000430
0.000392
0.000405
0.000390
0.000417
0.000392
0.000402
0.000405
0.000410
0.000412
0.000422
0.000432
0.000405
0.000420
0.000462
0.000422
0.000430
0.000447
0.000420
0.000412
0.000447
0.000400
0.000412
0.000395
0.000440
0.000435
0.000437
0.000422
0.000420
0.000405
0.000462
0.000445
0.000445
0.000425
0.000457
0.000440
0.000450
0.000455
0.000460
0.000440
0.000470
0.000407
0.000452
0.000400
0.000435
0.000427
0.000420
0.000422
0.000420
0.000392
0.000412
0.000425
0.000412
0.000407
0.000430
0.000425
0.000425
0.000427
0.000432
0.000395
0.000452
0.000427
0.000437
0.000392
0.000427
0.000425
0.000410
0.000387
0.000420
0.000387
0.000415
0.000395
0.000407
0.000402
0.000420
0.000372
0.000400
0.000365
0.000420
0.000375
0.000417
0.000430
0.000427
0.000430
0.000422
0.000427
0.000467
0.000435
0.000417
0.000422
0.000450
0.000417
0.000427
0.000437
0.000427
0.000392
0.000417
0.000405
0.000435
0.000415
0.000442
0.000432
0.000442
0.000417
0.000450
0.000415
0.000450
0.000427
0.000440
0.000430
0.000470
0.000445
0.000440
0.000427
0.000475
0.000410
0.000445
0.000452
0.000442
0.000415
0.000435
0.000437
0.000427
0.000412
0.000447
0.000397
0.000417
0.000435
0.000420
0.000405
0.000440
0.000410
0.000415
0.000427
0.000432
0.000420
0.000432
0.000452
0.000455
0.000395
0.000460
0.000412
0.000422
0.000435
0.000467
0.000417
0.000430
0.000417
0.000410
0.000425
0.000432
0.000435
0.000430
0.000412
0.000462
0.000415
0.000415
0.000435
0.000440
0.000417
0.000452
0.000435
0.000417
0.000400
0.000440
0.000412
0.000390
0.000420
0.000430
0.000415
0.000427
0.000410
0.000410
0.000395
0.000437
0.000407
0.000380
0.000420
0.000422
0.000380
0.000415
0.000392
0.000415
0.000395
0.000455
0.000427
0.000432
0.000425
0.000422
0.000407
0.000432
0.000420
0.000435
0.000397
0.000440
0.000410
0.000422
0.000422
0.000420
0.000395
0.000420
0.000422
0.000410
0.000392
0.000420
0.000420
0.000412
0.000390
0.000415
0.000395
0.000387
0.000405
0.000402
0.000420
0.000447
0.000412
0.000415
0.000455
0.000465
0.000442
0.000442
0.000410
0.000405
0.000377
0.000432
0.000407
0.000400
0.000417
0.000422
0.000417
0.000407
0.000402
0.000422
0.000397
0.000430
0.000420
0.000437
0.000417
0.000437
0.000387
0.000417
0.000390
0.000377
0.000412
0.000432
0.000410
0.000435
0.000430
0.000445
0.000417
0.000445
0.000457
0.000440
0.000447
0.000457
0.000432
0.000442
0.000412
0.000467
0.000405
0.000437
0.000432
0.000410
0.000412
0.000442
0.000425
0.000435
0.000457
0.000435
0.000437
0.000457
0.000452
0.000460
0.000465
0.000465
0.000440
0.000437
0.000435
0.000457
0.000400
0.000432
0.000415
0.000400
0.000405
0.000405
0.000422
0.000442
0.000417
0.000415
0.000422
0.000410
0.000425
0.000432
0.000422
0.000447
0.000405
0.000410
0.000435
0.000440
0.000385
0.000430
0.000437
0.000412
0.000407
0.000437
0.000417
0.000435
0.000412
0.000450
0.000420
0.000460
0.000460
0.000427
0.000435
0.000447
0.000420
0.000417
0.000430
0.000450
0.000382
0.000430
0.000405
0.000415
0.000375
0.000402
0.000400
0.000407
0.000400
0.000440
0.000435
0.000427
0.000425
0.000447
0.000412
0.000427
0.000445
0.000450
0.000422
0.000445
0.000420
0.000457
0.000422
0.000447
0.000445
0.000450
0.000457
0.000442
0.000392
0.000472
0.000442
0.000407
0.000417
0.000422
0.000437
0.000445
0.000425
0.000440
0.000427
0.000442
0.000417
0.000462
0.000437
0.000437
0.000422
0.000412
0.000437
0.000432
0.000387
0.000425
0.000432
0.000412
0.000387
0.000437
0.000425
0.000405
0.000417
0.000442
0.000412
0.000415
0.000422
0.000457
0.000420
0.000437
0.000402
0.000437
0.000440
0.000445
0.000430
0.000470
0.000437
0.000482
0.000420
0.000427
0.000425
0.000435
0.000415
0.000430
0.000432
0.000467
0.000430
0.000447
0.000437
0.000437
0.000440
0.000470
0.000445
0.000457
0.000435
0.000477
0.000437
0.000470
0.000445
0.000440
0.000415
0.000437
0.000397
0.000402
0.000400
0.000440
0.000427
0.000422
0.000405
0.000452
0.000415
0.000425
0.000432
0.000445
0.000440
0.000457
0.000422
0.000430
0.000430
0.000452
0.000422
0.000452
0.000475
0.000462
0.000452
0.000465
0.000412
0.000470
0.000445
0.000482
0.000437
0.000455
0.000460
0.000447
0.000445
0.000455
0.000427
0.000452
0.000435
0.000465
0.000445
0.000462
0.000442
0.000442
0.000407
0.000457
0.000395
0.000430
0.000445
0.000440
0.000452
0.000452
0.000442
0.000455
0.000415
0.000450
0.000427
0.000440
0.000415
0.000440
0.000405
0.000427
0.000415
0.000382
0.000400
0.000432
0.000407
0.000425
0.000405
0.000430
0.000375
0.000417
0.000422
0.000425
0.000397
0.000437
0.000417
0.000442
0.000422
0.000425
0.000425
0.000462
0.000452
0.000460
0.000425
0.000437
0.000410
0.000425
0.000415
0.000442
0.000430
0.000452
0.000440
0.000445
0.000432
0.000442
0.000455
0.000467
0.000445
0.000445
0.000442
0.000427
0.000380
0.000400
0.000390
0.000385
0.000382
0.000420
0.000377
0.000432
0.000400
0.000445
0.000427
0.000430
0.000445
0.000487
0.000470
0.000450
0.000437
0.000460
0.000465
0.000455
0.000435
0.000467
0.000430
0.000440
0.000427
0.000447
0.000422
0.000450
0.000425
0.000467
0.000412
0.000422
0.000410
0.000410
0.000402
0.000410
0.000430
0.000427
0.000425
0.000450
0.000427
0.000422
0.000415
0.000412
0.000420
0.000432
0.000437
0.000450
0.000415
0.000415
0.000425
0.000435
0.000422
0.000447
0.000460
0.000452
0.000435
0.000465
0.000402
0.000430
0.000427
0.000395
0.000417
0.000465
0.000402
0.000422
0.000442
0.000465
0.000410
0.000452
0.000475
0.000450
0.000445
0.000462
0.000442
0.000430
0.000437
0.000437
0.000415
0.000430
0.000442
0.000452
0.000415
0.000450
0.000410
0.000400
0.000427
0.000435
0.000412
0.000400
0.000432
0.000432
0.000397
0.000440
0.000460
0.000415
0.000450
0.000465
0.000435
0.000470
0.000445
0.000445
0.000430
0.000482
0.000410
0.000425
0.000445
0.000447
0.000412
0.000420
0.000435
0.000432
0.000405
0.000437
0.000445
0.000407
0.000407
0.000450
0.000420
0.000442
0.000430
0.000440
0.000460
0.000460
0.000450
0.000437
0.000452
0.000452
0.000425
0.000455
0.000437
0.000450
0.000415
0.000452
0.000432
0.000445
0.000427
0.000440
0.000435
0.000422
0.000402
0.000437
0.000422
0.000430
0.000442
0.000435
0.000425
0.000445
0.000435
0.000450
0.000425
0.000445
0.000425
0.000455
0.000470
0.000455
0.000447
0.000470
0.000430
0.000427
0.000417
0.000430
0.000425
0.000430
0.000425
0.000445
0.000410
0.000452
0.000430
0.000425
0.000417
0.000427
0.000385
0.000447
0.000425
0.000432
0.000425
0.000450
0.000420
0.000450
0.000427
0.000435
0.000422
0.000435
0.000442
0.000445
0.000435
0.000457
0.000425
0.000402
0.000410
0.000415
0.000402
0.000442
0.000427
0.000432
0.000425
0.000425
0.000417
0.000400
0.000410
0.000405
0.000395
0.000480
0.000435
0.000427
0.000422
0.000450
0.000435
0.000437
0.000445
0.000462
0.000432
0.000455
0.000427
0.000442
0.000442
0.000475
0.000447
0.000427
0.000465
0.000447
0.000452
0.000450
0.000422
0.000447
0.000452
0.000465
0.000442
0.000445
0.000445
0.000455
0.000427
0.000430
0.000457
0.000415
0.000430
0.000460
0.000417
0.000450
0.000440
0.000432
0.000427
0.000465
0.000415
0.000460
0.000447
0.000412
0.000437
0.000430
0.000435
0.000440
0.000420
0.000447
0.000447
0.000455
0.000420
0.000447
0.000407
0.000420
0.000440
0.000455
0.000437
0.000430
0.000430
0.000445
0.000420
0.000465
0.000417
0.000445
0.000452
0.000440
0.000410
0.000440
0.000425
0.000407
0.000452
0.000477
0.000432
0.000442
0.000420
0.000440
0.000415
0.000422
0.000437
0.000425
0.000415
0.000452
0.000405
0.000437
0.000390
0.000427
0.000422
0.000440
0.000440
0.000452
0.000455
0.000445
0.000405
0.000397
0.000450
0.000430
0.000397
0.000450
0.000425
0.000447
0.000417
0.000462
0.000405
0.000447
0.000440
0.000425
0.000442
0.000427
0.000425
0.000430
0.000415
0.000435
0.000390
0.000425
0.000420
0.000425
0.000397
0.000427
0.000397
0.000427
0.000427
0.000467
0.000440
0.000467
0.000460
0.000465
0.000407
0.000460
0.000450
0.000422
0.000420
0.000457
0.000450
0.000440
0.000425
0.000415
0.000380
0.000422
0.000417
0.000442
0.000432
0.000475
0.000420
0.000435
0.000402
0.000445
0.000387
0.000442
0.000455
0.000440
0.000420
0.000445
0.000452
0.000440
0.000420
0.000452
0.000415
0.000460
0.000427
0.000457
0.000455
0.000437
0.000415
0.000422
0.000415
0.000440
0.000410
0.000432
0.000420
0.000432
0.000405
0.000430
0.000440
0.000455
0.000435
0.000477
0.000460
0.000467
0.000432
0.000455
0.000465
0.000445
0.000452
0.000475
0.000432
0.000455
0.000402
0.000422
0.000427
0.000420
0.000392
0.000430
0.000420
0.000440
0.000427
0.000432
0.000455
0.000445
0.000422
0.000450
0.000480
0.000485
0.000442
0.000497
0.000465
0.000447
0.000470
0.000460
0.000435
0.000417
0.000415
0.000440
0.000415
0.000410
0.000410
0.000425
0.000397
0.000405
0.000397
0.000445
0.000435
0.000455
0.000417
0.000455
0.000447
0.000450
0.000435
0.000460
0.000422
0.000452
0.000452
0.000482
0.000460
0.000460
0.000450
0.000420
0.000417
0.000452
0.000430
0.000432
0.000427
0.000437
0.000425
0.000437
0.000437
0.000425
0.000407
0.000485
0.000437
0.000435
0.000442
0.000437
0.000442
0.000450
0.000455
0.000472
0.000430
0.000460
0.000420
0.000430
0.000425
0.000440
0.000417
0.000417
0.000410
0.000427
0.000415
0.000440
0.000425
0.000447
0.000432
0.000447
0.000430
0.000462
0.000445
0.000460
0.000450
0.000472
0.000445
0.000432
0.000422
0.000465
0.000435
0.000455
0.000445
0.000412
0.000397
0.000437
0.000412
0.000417
0.000447
0.000432
0.000425
0.000442
0.000437
0.000447
0.000430
0.000457
0.000437
0.000455
0.000460
0.000490
0.000432
0.000465
0.000455
0.000455
0.000442
0.000485
0.000442
0.000460
0.000465
0.000437
0.000447
0.000420
0.000407
0.000445
0.000427
0.000447
0.000430
0.000447
0.000417
0.000457
0.000430
0.000482
0.000450
0.000427
0.000435
0.000447
0.000445
0.000450
0.000425
0.000482
0.000450
0.000440
0.000467
0.000435
0.000450
0.000472
0.000440
0.000455
0.000450
0.000457
0.000415
0.000452
0.000432
0.000410
0.000420
0.000437
0.000412
0.000432
0.000437
0.000445
0.000405
0.000442
0.000417
0.000435
0.000455
0.000457
0.000407
0.000437
0.000427
0.000442
0.000427
0.000442
0.000457
0.000437
0.000442
0.000455
0.000435
0.000430
0.000437
0.000432
0.000402
0.000435
0.000445
0.000445
0.000435
0.000477
0.000465
0.000422
0.000452
0.000460
0.000405
0.000462
0.000452
0.000460
0.000442
0.000470
0.000437
0.000420
0.000427
0.000440
0.000420
0.000447
0.000427
0.000402
0.000410
0.000462
0.000425
0.000417
0.000440
0.000447
0.000402
0.000460
0.000460
0.000437
0.000427
0.000470
0.000427
0.000450
0.000455
0.000457
0.000425
0.000450
0.000450
0.000412
0.000432
0.000440
0.000395
0.000440
0.000447
0.000460
0.000432
0.000445
0.000445
0.000430
0.000427
0.000442
0.000425
0.000435
0.000432
0.000470
0.000432
0.000447
0.000437
0.000435
0.000417
0.000485
0.000422
0.000432
0.000445
0.000452
0.000432
0.000460
0.000452
0.000432
0.000427
0.000462
0.000440
0.000447
0.000457
0.000482
0.000430
0.000450
0.000447
0.000440
0.000432
0.000487
0.000457
0.000442
0.000467
0.000472
0.000397
0.000437
0.000457
0.000437
0.000412
0.000460
0.000432
0.000417
0.000417
0.000432
0.000425
0.000402
0.000465
0.000460
0.000422
0.000500
0.000447
0.000435
0.000472
0.000480
0.000460
0.000452
0.000467
0.000455
0.000390
0.000420
0.000412
0.000397
0.000432
0.000457
0.000407
0.000442
0.000442
0.000447
0.000425
0.000470
0.000435
0.000435
0.000477
0.000445
0.000417
0.000455
0.000437
0.000432
0.000432
0.000477
0.000445
0.000405
0.000445
0.000442
0.000407
0.000430
0.000460
0.000447
0.000415
0.000435
0.000410
0.000417
0.000430
0.000465
0.000422
0.000450
0.000445
0.000442
0.000425
0.000460
0.000455
0.000445
0.000430
0.000472
0.000422
0.000450
0.000415
0.000442
0.000430
0.000460
0.000425
0.000447
0.000445
0.000455
0.000420
0.000440
0.000475
0.000445
0.000437
0.000475
0.000445
0.000440
0.000435
0.000440
0.000397
0.000432
0.000432
0.000410
0.000415
0.000445
0.000405
0.000412
0.000432
0.000445
0.000402
0.000442
0.000447
0.000425
0.000405
0.000447
0.000435
0.000440
0.000460
0.000460
0.000440
0.000457
t0(sec) = 0.000000E+0
dt(sec) = 4.000000E-10
F4:INSP "
DESCRIPTOR_NAME    : WAVEDESC           
TEMPLATE_NAME      : LECROY_2_3         
COMM_TYPE          : word               
COMM_ORDER         : HIFIRST            
WAVE_DESCRIPTOR    : 346                
USER_TEXT          : 0                  
RES_DESC1          : 0                  
TRIGTIME_ARRAY     : 0                  
RIS_TIME_ARRAY     : 0                  
RES_ARRAY1         : 0                  
WAVE_ARRAY_1       : 9932               
WAVE_ARRAY_2       : 0                  
RES_ARRAY2         : 0                  
RES_ARRAY3         : 0                  
INSTRUMENT_NAME    : LECROYHDO6104      
INSTRUMENT_NUMBER  : 6308               
TRACE_LABEL        :                    
RESERVED1          : 4966               
RESERVED2          : 0                  
WAVE_ARRAY_COUNT   : 4966               
PNTS_PER_SCREEN    : 5000               
FIRST_VALID_PNT    : 0                  
LAST_VALID_PNT     : 4965               
FIRST_POINT        : 0                  
SPARSING_FACTOR    : 1                  
SEGMENT_INDEX      : 0                  
SUBARRAY_COUNT     : 1                  
SWEEPS_PER_ACQ     : 200                
POINTS_PER_PAIR    : 0                  
PAIR_OFFSET        : 0                  
VERTICAL_GAIN      : 2.6238e-006        
VERTICAL_OFFSET    : 6.8001e-002        
MAX_VALUE          : 2.7366e+004        
MIN_VALUE          : 1.2377e+004        
NOMINAL_BITS       : 16                 
NOM_SUBARRAY_COUNT : 1                  
HORIZ_INTERVAL     : 4.0000e-010        
HORIZ_OFFSET       : -2.00000000e-007   
PIXEL_OFFSET       : -2.14000000e-007   
VERTUNIT           : Unit Name = V
HORUNIT            : Unit Name = S
HORIZ_UNCERTAINTY  : 1.0000e-012        
TRIGGER_TIME       : Date = APR 17, 2024, Time = 19:17:34.858259610
ACQ_DURATION       : 1.0049e+001        
RECORD_TYPE        : single_sweep       
PROCESSING_DONE    : no_processing      
RESERVED5          : 0                  
RIS_SWEEPS         : 1                  
TIMEBASE           : 200_ns/div         
VERT_COUPLING      : DC_50_Ohms         
PROBE_ATT          : 1.0000e+000        
FIXED_VERT_GAIN    : 5_mV/div           
BANDWIDTH_LIMIT    : off                
VERTICAL_VERNIER   : 1.0000e+000        
ACQ_VERT_OFFSET    : 0.0000e+000        
WAVE_SOURCE        : UNKNOWN            
"
0.000690
0.000690
0.000656
0.000661
0.000693
0.000648
0.000638
0.000674
0.000677
0.000598
0.000564
0.000548
0.000506
0.000582
0.000656
0.000638
0.000679
0.000674
0.000666
0.000672
0.000614
0.000596
0.000609
0.000635
0.000651
0.000669
0.000638
0.000672
0.000674
0.000643
0.000630
0.000598
0.000611
0.000648
0.000653
0.000645
0.000674
0.000690
0.000648
0.000648
0.000672
0.000661
0.000611
0.000603
0.000651
0.000653
0.000645
0.000674
0.000666
0.000669
0.000664
0.000672
0.000682
0.000632
0.000645
0.000672
0.000666
0.000672
0.000679
0.000674
0.000674
0.000656
0.000651
0.000682
0.000695
0.000640
0.000643
0.000672
0.000666
0.000630
0.000630
0.000651
0.000664
0.000658
0.000666
0.000679
0.000645
0.000627
0.000656
0.000674
0.000672
0.000635
0.000614
0.000588
0.000632
0.000635
0.000603
0.000682
0.000658
0.000656
0.000643
0.000679
0.000632
0.000546
0.000519
0.000554
0.000609
0.000609
0.000598
0.000603
0.000653
0.000653
0.000635
0.000672
0.000674
0.000640
0.000674
0.000674
0.000695
0.000687
0.000656
0.000698
0.000658
0.000640
0.000648
0.000653
0.000658
0.000648
0.000679
0.000679
0.000682
0.000690
0.000643
0.000624
0.000635
0.000635
0.000672
0.000656
0.000685
0.000645
0.000682
0.000677
0.000672
0.000658
0.000648
0.000630
0.000575
0.000601
0.000632
0.000632
0.000630
0.000669
0.000651
0.000645
0.000687
0.000666
0.000687
0.000653
0.000677
0.000658
0.000664
0.000651
0.000653
0.000638
0.000640
0.000624
0.000651
0.000648
0.000679
0.000651
0.000630
0.000582
0.000611
0.000632
0.000666
0.000632
0.000598
0.000593
0.000643
0.000651
0.000677
0.000658
0.000640
0.000643
0.000653
0.000685
0.000664
0.000640
0.000635
0.000603
0.000645
0.000682
0.000658
0.000656
0.000679
0.000651
0.000619
0.000638
0.000656
0.000674
0.000651
0.000677
0.000674
0.000653
0.000687
0.000679
0.000677
0.000672
0.000674
0.000656
0.000674
0.000645
0.000658
0.000661
0.000638
0.000601
0.000632
0.000627
0.000661
0.000648
0.000643
0.000664
0.000622
0.000614
0.000622
0.000630
0.000606
0.000593
0.000622
0.000614
0.000645
0.000638
0.000658
0.000664
0.000672
0.000706
0.000656
0.000648
0.000661
0.000664
0.000672
0.000661
0.000658
0.000658
0.000669
0.000651
0.000648
0.000666
0.000669
0.000653
0.000677
0.000685
0.000651
0.000653
0.000677
0.000685
0.000648
0.000669
0.000708
0.000674
0.000672
0.000648
0.000617
0.000635
0.000635
0.000643
0.000653
0.000666
0.000656
0.000640
0.000656
0.000656
0.000643
0.000661
0.000640
0.000648
0.000674
0.000658
0.000679
0.000632
0.000651
0.000643
0.000627
0.000606
0.000606
0.000643
0.000658
0.000632
0.000666
0.000638
0.000624
0.000669
0.000661
0.000635
0.000640
0.000630
0.000630
0.000635
0.000630
0.000611
0.000611
0.000617
0.000624
0.000658
0.000635
0.000651
0.000679
0.000677
0.000664
0.000651
0.000656
0.000672
0.000653
0.000617
0.000658
0.000648
0.000651
0.000624
0.000619
0.000611
0.000614
0.000651
0.000656
0.000653
0.000677
0.000674
0.000682
0.000661
0.000682
0.000658
0.000666
0.000653
0.000674
0.000669
0.000677
0.000690
0.000656
0.000656
0.000693
0.000658
0.000679
0.000674
0.000656
0.000630
0.000617
0.000624
0.000643
0.000601
0.000559
0.000619
0.000624
0.000635
0.000666
0.000677
0.000672
0.000640
0.000656
0.000648
0.000674
0.000653
0.000677
0.000679
0.000653
0.000640
0.000635
0.000635
0.000645
0.000624
0.000661
0.000672
0.000632
0.000666
0.000666
0.000630
0.000669
0.000695
0.000674
0.000666
0.000677
0.000640
0.000606
0.000588
0.000609
0.000609
0.000677
0.000661
0.000651
0.000674
0.000661
0.000590
0.000598
0.000658
0.000590
0.000598
0.000627
0.000632
0.000640
0.000577
0.000596
0.000658
0.000635
0.000645
0.000698
0.000679
0.000664
0.000682
0.000693
0.000690
0.000669
0.000643
0.000648
0.000679
0.000619
0.000638
0.000640
0.000640
0.000598
0.000603
0.000632
0.000593
0.000627
0.000606
0.000614
0.000643
0.000651
0.000609
0.000590
0.000632
0.000666
0.000645
0.000682
0.000708
0.000690
0.000624
0.000619
0.000603
0.000556
0.000569
0.000666
0.000721
0.000708
0.000729
0.000782
0.000687
0.000664
0.000648
0.000630
0.000619
0.000622
0.000640
0.000617
0.000590
0.000596
0.000601
0.000614
0.000622
0.000651
0.000698
0.000664
0.000590
0.000638
0.000643
0.000632
0.000598
0.000606
0.000632
0.000643
0.000593
0.000611
0.000664
0.000677
0.000703
0.000750
0.000742
0.000687
0.000601
0.000509
0.000517
0.000580
0.000624
0.000666
0.000664
0.000635
0.000598
0.000666
0.000763
0.000845
0.000861
0.000853
0.000740
0.000601
0.000530
0.000501
0.000519
0.000554
0.000569
0.000580
0.000569
0.000588
0.000624
0.000724
0.000824
0.000916
0.000955
0.000889
0.000779
0.000638
0.000535
0.000525
0.000493
0.000475
0.000380
0.000346
0.000336
0.000380
0.000533
0.000656
0.000834
0.000955
0.000965
0.000971
0.000874
0.000782
0.000771
0.000698
0.000645
0.000512
0.000412
0.000312
0.000212
0.000302
0.000438
0.000666
0.000866
0.001068
0.001078
0.001010
0.000921
0.000868
0.000840
0.000787
0.000740
0.000617
0.000456
0.000414
0.000325
0.000370
0.000470
0.000611
0.000698
0.000687
0.000724
0.000745
0.000771
0.000876
0.000942
0.001000
0.000903
0.000693
0.000443
0.000199
0.000005
-0.000320
-0.000732
-0.001162
-0.001957
-0.002918
-0.003684
-0.004117
-0.004647
-0.005258
-0.005961
-0.006675
-0.007404
-0.008315
-0.009354
-0.010343
-0.010747
-0.010605
-0.010167
-0.009950
-0.009960
-0.010052
-0.010298
-0.010096
-0.009328
-0.008740
-0.008638
-0.008504
-0.008383
-0.008438
-0.008604
-0.008422
-0.008226
-0.008213
-0.007906
-0.007271
-0.006958
-0.006790
-0.006670
-0.006951
-0.007305
-0.007121
-0.006604
-0.006276
-0.006531
-0.006956
-0.006743
-0.006250
-0.006111
-0.006197
-0.006360
-0.006100
-0.005534
-0.005442
-0.005489
-0.005190
-0.004912
-0.005072
-0.005051
-0.004426
-0.004371
-0.005067
-0.005190
-0.004749
-0.004726
-0.004964
-0.004941
-0.004943
-0.004828
-0.004437
-0.004151
-0.003957
-0.004091
-0.004264
-0.004219
-0.004279
-0.004689
-0.004993
-0.004796
-0.004384
-0.004321
-0.004400
-0.004114
-0.003883
-0.004049
-0.004319
-0.004442
-0.004458
-0.004245
-0.004030
-0.003902
-0.003726
-0.003608
-0.003747
-0.003952
-0.003991
-0.003944
-0.004054
-0.004049
-0.003818
-0.003917
-0.003996
-0.003852
-0.003854
-0.004151
-0.004227
-0.003794
-0.003429
-0.003408
-0.003198
-0.002823
-0.002829
-0.002949
-0.002810
-0.002695
-0.002716
-0.002894
-0.003086
-0.003012
-0.002805
-0.002847
-0.003196
-0.003550
-0.003587
-0.003505
-0.003479
-0.003377
-0.003149
-0.003038
-0.003146
-0.003240
-0.002928
-0.002564
-0.002642
-0.002771
-0.002556
-0.002524
-0.002713
-0.002931
-0.002962
-0.003133
-0.003251
-0.002928
-0.002527
-0.002655
-0.002965
-0.003075
-0.003012
-0.003075
-0.003296
-0.003104
-0.002829
-0.003078
-0.003214
-0.002682
-0.002325
-0.002947
-0.003555
-0.003592
-0.003345
-0.003012
-0.002776
-0.002810
-0.002729
-0.002684
-0.002928
-0.003028
-0.002737
-0.002537
-0.002805
-0.002952
-0.002637
-0.002443
-0.002663
-0.002920
-0.002989
-0.003214
-0.003306
-0.003075
-0.002923
-0.003031
-0.002682
-0.002159
-0.001986
-0.002115
-0.002157
-0.002096
-0.002322
-0.002613
-0.002818
-0.002931
-0.002884
-0.002871
-0.002918
-0.002850
-0.002506
-0.002204
-0.002230
-0.002459
-0.002514
-0.002301
-0.002047
-0.001876
-0.001774
-0.001761
-0.001923
-0.002010
-0.002034
-0.002186
-0.002456
-0.002543
-0.002393
-0.002440
-0.002519
-0.002522
-0.002309
-0.002141
-0.002191
-0.002312
-0.002393
-0.002246
-0.002028
-0.001918
-0.001818
-0.001740
-0.001771
-0.001850
-0.001944
-0.001950
-0.002002
-0.002125
-0.002010
-0.001855
-0.001921
-0.001818
-0.001656
-0.001803
-0.002125
-0.002401
-0.002587
-0.002674
-0.002406
-0.001934
-0.001831
-0.002070
-0.002117
-0.002062
-0.001999
-0.001792
-0.001818
-0.002312
-0.002598
-0.002312
-0.001813
-0.001716
-0.001658
-0.001653
-0.001831
-0.001947
-0.001687
-0.001543
-0.001860
-0.001989
-0.001637
-0.001501
-0.001763
-0.001632
-0.001317
-0.001509
-0.001845
-0.001813
-0.001577
-0.001706
-0.001847
-0.001860
-0.001908
-0.002083
-0.002330
-0.002564
-0.002595
-0.002233
-0.001818
-0.001648
-0.001648
-0.001606
-0.001648
-0.001761
-0.001934
-0.002083
-0.002186
-0.002275
-0.002388
-0.002320
-0.002275
-0.002422
-0.002296
-0.001902
-0.001763
-0.001706
-0.001270
-0.000971
-0.001249
-0.001606
-0.001551
-0.001498
-0.001774
-0.001973
-0.001782
-0.001724
-0.001837
-0.001566
-0.001341
-0.001842
-0.001997
-0.001540
-0.001364
-0.001727
-0.001761
-0.001404
-0.001438
-0.001713
-0.001700
-0.001519
-0.001603
-0.001776
-0.001658
-0.001572
-0.001800
-0.001873
-0.001603
-0.001561
-0.001750
-0.001842
-0.002057
-0.002152
-0.001931
-0.001624
-0.001564
-0.001724
-0.001519
-0.001144
-0.001126
-0.001354
-0.001459
-0.001493
-0.001485
-0.001454
-0.001246
-0.001052
-0.001094
-0.001176
-0.001239
-0.001443
-0.001627
-0.001695
-0.001682
-0.001677
-0.001608
-0.001650
-0.001761
-0.001595
-0.001273
-0.001204
-0.001385
-0.001527
-0.001559
-0.001608
-0.001608
-0.001464
-0.001372
-0.001417
-0.001301
-0.001304
-0.001483
-0.001543
-0.001582
-0.001713
-0.001868
-0.002125
-0.002459
-0.002508
-0.002152
-0.001713
-0.001656
-0.001719
-0.001761
-0.001685
-0.001582
-0.001643
-0.001664
-0.001543
-0.001511
-0.001538
-0.001341
-0.001338
-0.001671
-0.001915
-0.001774
-0.001622
-0.001587
-0.001427
-0.001357
-0.001291
-0.001254
-0.001207
-0.001089
-0.001092
-0.001047
-0.000905
-0.000994
-0.001246
-0.001134
-0.000855
-0.000837
-0.001036
-0.001052
-0.000955
-0.001050
-0.001315
-0.001420
-0.001493
-0.001740
-0.001889
-0.001750
-0.001506
-0.001517
-0.001556
-0.001496
-0.001257
-0.000974
-0.000858
-0.001015
-0.001157
-0.001170
-0.001288
-0.001417
-0.001417
-0.001404
-0.001464
-0.001522
-0.001343
-0.001092
-0.001094
-0.001212
-0.001141
-0.001021
-0.001210
-0.001328
-0.001317
-0.001233
-0.001110
-0.001039
-0.001002
-0.001081
-0.001249
-0.001249
-0.001273
-0.001527
-0.001561
-0.001322
-0.001115
-0.001210
-0.001401
-0.001406
-0.001223
-0.001078
-0.001120
-0.001336
-0.001517
-0.001380
-0.001118
-0.000955
-0.000855
-0.000771
-0.000887
-0.000958
-0.000976
-0.001157
-0.001286
-0.001157
-0.001031
-0.001126
-0.001110
-0.000913
-0.000947
-0.001029
-0.000932
-0.000790
-0.001010
-0.001241
-0.001257
-0.001265
-0.001357
-0.001333
-0.001107
-0.001078
-0.001141
-0.001144
-0.001063
-0.001102
-0.001128
-0.001191
-0.001315
-0.001267
-0.001115
-0.001094
-0.001341
-0.001420
-0.001301
-0.001336
-0.001388
-0.000958
-0.000651
-0.000821
-0.000932
-0.000855
-0.000897
-0.001081
-0.001244
-0.001254
-0.001288
-0.001149
-0.000882
-0.000640
-0.000677
-0.001002
-0.001076
-0.000824
-0.000659
-0.000942
-0.001309
-0.001383
-0.001330
-0.001252
-0.001157
-0.001176
-0.001262
-0.001336
-0.001131
-0.000876
-0.000653
-0.000577
-0.000632
-0.000711
-0.000716
-0.000711
-0.000905
-0.000916
-0.000816
-0.001052
-0.001359
-0.001346
-0.001078
-0.000950
-0.000895
-0.000834
-0.001068
-0.001330
-0.001186
-0.000837
-0.000787
-0.000842
-0.000698
-0.000646
-0.000800
-0.000842
-0.000824
-0.001044
-0.001252
-0.001110
-0.001005
-0.001134
-0.001231
-0.001299
-0.001527
-0.001619
-0.001343
-0.001097
-0.001183
-0.001212
-0.001055
-0.000934
-0.000824
-0.000690
-0.000690
-0.000871
-0.000895
-0.000853
-0.000861
-0.000858
-0.000887
-0.000861
-0.001115
-0.001364
-0.001081
-0.000656
-0.000740
-0.000971
-0.000706
-0.000459
-0.000722
-0.000853
-0.000722
-0.000837
-0.001168
-0.001076
-0.000764
-0.000853
-0.001181
-0.001152
-0.000897
-0.000879
-0.000932
-0.000811
-0.000758
-0.000834
-0.000876
-0.000871
-0.000937
-0.000837
-0.000779
-0.001118
-0.001454
-0.001270
-0.000958
-0.001002
-0.001107
-0.001084
-0.001097
-0.001186
-0.001197
-0.001239
-0.001210
-0.000908
-0.000659
-0.000517
-0.000585
-0.000808
-0.001107
-0.001071
-0.000764
-0.000680
-0.000861
-0.000989
-0.000921
-0.000884
-0.000882
-0.000803
-0.000890
-0.001126
-0.001380
-0.001336
-0.001189
-0.001210
-0.001239
-0.001026
-0.000918
-0.000932
-0.000785
-0.000441
-0.000409
-0.000590
-0.000690
-0.000771
-0.000800
-0.000819
-0.000790
-0.000840
-0.000945
-0.000994
-0.000994
-0.001050
-0.001110
-0.001031
-0.000861
-0.000874
-0.001018
-0.000869
-0.000509
-0.000496
-0.000869
-0.000869
-0.000622
-0.000601
-0.000792
-0.000821
-0.000834
-0.001018
-0.000974
-0.000785
-0.000777
-0.001065
-0.001165
-0.000981
-0.000929
-0.001092
-0.001026
-0.000729
-0.000619
-0.000698
-0.000727
-0.000635
-0.000596
-0.000653
-0.000777
-0.000779
-0.000719
-0.000698
-0.000674
-0.000614
-0.000716
-0.000821
-0.000685
-0.000590
-0.000698
-0.000745
-0.000635
-0.000748
-0.001015
-0.000918
-0.000556
-0.000417
-0.000504
-0.000433
-0.000423
-0.000711
-0.000981
-0.000903
-0.000890
-0.001173
-0.001288
-0.000890
-0.000499
-0.000459
-0.000493
-0.000520
-0.000714
-0.000808
-0.000667
-0.000572
-0.000724
-0.000771
-0.000672
-0.000656
-0.000750
-0.000845
-0.000766
-0.000575
-0.000339
-0.000228
-0.000270
-0.000333
-0.000239
-0.000105
-0.000218
-0.000375
-0.000388
-0.000386
-0.000538
-0.000653
-0.000548
-0.000428
-0.000354
-0.000362
-0.000472
-0.000598
-0.000672
-0.000680
-0.000606
-0.000533
-0.000677
-0.000890
-0.000813
-0.000661
-0.000714
-0.000766
-0.000703
-0.000779
-0.000887
-0.000630
-0.000457
-0.000701
-0.000861
-0.000667
-0.000430
-0.000454
-0.000533
-0.000782
-0.000974
-0.001105
-0.001094
-0.000984
-0.000646
-0.000315
-0.000315
-0.000488
-0.000590
-0.000640
-0.000821
-0.001005
-0.000976
-0.000981
-0.000979
-0.000764
-0.000653
-0.000882
-0.000987
-0.000808
-0.000680
-0.000619
-0.000530
-0.000525
-0.000606
-0.000551
-0.000373
-0.000428
-0.000632
-0.000619
-0.000685
-0.000771
-0.000604
-0.000354
-0.000454
-0.000562
-0.000412
-0.000286
-0.000501
-0.000564
-0.000388
-0.000388
-0.000548
-0.000543
-0.000604
-0.000669
-0.000480
-0.000331
-0.000514
-0.000785
-0.000740
-0.000611
-0.000695
-0.000659
-0.000457
-0.000310
-0.000234
-0.000110
-0.000129
-0.000451
-0.000577
-0.000346
-0.000278
-0.000457
-0.000527
-0.000493
-0.000601
-0.000653
-0.000522
-0.000478
-0.000569
-0.000506
-0.000328
-0.000184
-0.000315
-0.000530
-0.000606
-0.000651
-0.000667
-0.000590
-0.000483
-0.000388
-0.000467
-0.000632
-0.000703
-0.000913
-0.001047
-0.000858
-0.000688
-0.000706
-0.000785
-0.000769
-0.000656
-0.000527
-0.000446
-0.000341
-0.000297
-0.000333
-0.000438
-0.000567
-0.000625
-0.000577
-0.000577
-0.000530
-0.000367
-0.000228
-0.000268
-0.000375
-0.000433
-0.000391
-0.000522
-0.000583
-0.000493
-0.000365
-0.000333
-0.000341
-0.000423
-0.000386
-0.000283
-0.000218
-0.000262
-0.000231
-0.000194
-0.000399
-0.000688
-0.000756
-0.000685
-0.000651
-0.000748
-0.000816
-0.000695
-0.000556
-0.000543
-0.000415
-0.000257
-0.000294
-0.000441
-0.000307
-0.000123
-0.000283
-0.000407
-0.000383
-0.000577
-0.000845
-0.000779
-0.000488
-0.000346
-0.000438
-0.000344
-0.000331
-0.000464
-0.000512
-0.000590
-0.000630
-0.000488
-0.000325
-0.000370
-0.000430
-0.000391
-0.000257
-0.000362
-0.000407
-0.000197
-0.000171
-0.000336
-0.000512
-0.000520
-0.000407
-0.000289
-0.000268
-0.000247
-0.000194
-0.000220
-0.000249
-0.000283
-0.000344
-0.000467
-0.000472
-0.000438
-0.000530
-0.000716
-0.000690
-0.000596
-0.000585
-0.000651
-0.000627
-0.000706
-0.001050
-0.001246
-0.000953
-0.000646
-0.000604
-0.000467
-0.000108
-0.000071
-0.000239
-0.000249
-0.000270
-0.000441
-0.000425
-0.000102
-0.000037
-0.000299
-0.000378
-0.000328
-0.000423
-0.000664
-0.000506
-0.000173
-0.000189
-0.000234
0.000029
0.000121
-0.000060
-0.000165
-0.000168
-0.000375
-0.000475
-0.000247
-0.000055
-0.000108
-0.000223
-0.000215
-0.000252
-0.000430
-0.000601
-0.000774
-0.000834
-0.000816
-0.000737
-0.000627
-0.000394
-0.000129
-0.000005
-0.000024
-0.000011
-0.000131
-0.000163
-0.000142
-0.000210
-0.000352
-0.000415
-0.000504
-0.000588
-0.000509
-0.000349
-0.000318
-0.000454
-0.000464
-0.000391
-0.000399
-0.000394
-0.000262
-0.000244
-0.000362
-0.000522
-0.000632
-0.000714
-0.000727
-0.000525
-0.000289
-0.000173
-0.000257
-0.000407
-0.000436
-0.000260
-0.000236
-0.000315
-0.000273
-0.000244
-0.000286
-0.000252
-0.000388
-0.000551
-0.000564
-0.000593
-0.000601
-0.000496
-0.000323
-0.000302
-0.000438
-0.000462
-0.000457
-0.000430
-0.000357
-0.000244
-0.000218
-0.000320
-0.000365
-0.000273
-0.000247
-0.000320
-0.000328
-0.000165
-0.000126
-0.000249
-0.000341
-0.000428
-0.000396
-0.000346
-0.000349
-0.000299
-0.000165
-0.000152
-0.000270
-0.000210
-0.000026
-0.000121
-0.000241
-0.000186
-0.000089
-0.000152
-0.000189
-0.000134
-0.000121
-0.000152
-0.000234
-0.000283
-0.000349
-0.000407
-0.000407
-0.000197
-0.000053
-0.000105
-0.000176
-0.000118
-0.000092
-0.000199
-0.000199
-0.000129
-0.000268
-0.000412
-0.000399
-0.000417
-0.000501
-0.000556
-0.000501
-0.000509
-0.000567
-0.000472
-0.000231
-0.000055
-0.000137
-0.000168
-0.000168
-0.000297
-0.000512
-0.000664
-0.000745
-0.000729
-0.000659
-0.000491
-0.000336
-0.000399
-0.000365
-0.000168
-0.000087
-0.000016
-0.000003
-0.000110
-0.000155
-0.000158
-0.000152
-0.000241
-0.000255
-0.000165
-0.000276
-0.000451
-0.000491
-0.000325
-0.000092
0.000055
0.000097
0.000084
0.000052
0.000100
0.000152
0.000081
-0.000249
-0.000480
-0.000362
-0.000152
-0.000278
-0.000575
-0.000648
-0.000499
-0.000433
-0.000360
-0.000260
-0.000168
-0.000102
-0.000024
0.000092
0.000034
-0.000165
-0.000160
-0.000089
-0.000097
-0.000055
0.000024
0.000055
0.000081
0.000089
0.000100
0.000071
0.000021
-0.000118
-0.000276
-0.000325
-0.000176
-0.000034
-0.000163
-0.000283
-0.000123
-0.000053
-0.000307
-0.000546
-0.000373
-0.000197
-0.000252
-0.000318
-0.000197
-0.000100
-0.000147
-0.000291
-0.000331
-0.000276
-0.000276
-0.000339
-0.000268
-0.000181
-0.000239
-0.000255
-0.000286
-0.000443
-0.000611
-0.000585
-0.000428
-0.000415
-0.000354
-0.000255
-0.000226
-0.000234
-0.000121
-0.000095
-0.000113
-0.000110
-0.000171
-0.000241
-0.000239
-0.000249
-0.000276
-0.000215
-0.000394
-0.000483
-0.000318
-0.000152
-0.000100
0.000050
0.000239
0.000197
0.000100
0.000037
0.000034
-0.000050
-0.000053
-0.000053
-0.000218
-0.000378
-0.000360
-0.000310
-0.000302
-0.000247
-0.000186
-0.000205
-0.000176
-0.000192
-0.000247
-0.000236
-0.000152
-0.000234
-0.000341
-0.000260
-0.000110
-0.000105
-0.000121
-0.000068
-0.000118
-0.000197
-0.000034
-0.000024
-0.000228
-0.000257
-0.000011
0.000058
-0.000176
-0.000312
-0.000255
-0.000283
-0.000394
-0.000381
-0.000294
-0.000357
-0.000388
-0.000234
-0.000089
-0.000102
-0.000066
0.000013
-0.000084
-0.000328
-0.000310
-0.000176
-0.000173
-0.000239
-0.000302
-0.000412
-0.000501
-0.000459
-0.000336
-0.000291
-0.000265
-0.000283
-0.000304
-0.000409
-0.000677
-0.000735
-0.000556
-0.000357
-0.000228
-0.000013
0.000118
0.000123
0.000089
-0.000042
-0.000121
-0.000234
-0.000231
-0.000197
-0.000268
-0.000181
-0.000037
-0.000045
-0.000236
-0.000315
-0.000262
-0.000276
-0.000228
-0.000058
-0.000008
-0.000202
-0.000236
-0.000029
0.000010
-0.000139
-0.000129
-0.000050
-0.000189
-0.000438
-0.000320
-0.000176
-0.000262
-0.000215
-0.000024
-0.000034
-0.000286
-0.000441
-0.000430
-0.000441
-0.000262
-0.000026
0.000097
0.000039
0.000026
0.000018
-0.000058
-0.000039
0.000050
0.000026
0.000031
0.000052
-0.000011
-0.000247
-0.000407
-0.000223
0.000031
0.000073
0.000157
0.000268
0.000231
0.000024
-0.000110
-0.000003
-0.000024
-0.000168
-0.000084
-0.000108
-0.000249
-0.000241
-0.000123
-0.000026
-0.000055
-0.000092
-0.000121
-0.000158
-0.000102
0.000110
0.000186
0.000076
-0.000055
-0.000144
-0.000150
-0.000226
-0.000223
-0.000173
-0.000142
-0.000087
0.000068
0.000176
0.000205
0.000055
-0.000126
-0.000265
-0.000155
-0.000060
0.000034
0.000076
0.000144
0.000071
-0.000142
-0.000278
-0.000105
-0.000039
-0.000087
-0.000018
0.000168
0.000178
0.000094
0.000039
0.000008
-0.000060
-0.000142
-0.000066
-0.000060
-0.000097
-0.000116
-0.000270
-0.000304
-0.000116
0.000066
0.000071
0.000191
0.000273
0.000212
0.000152
0.000113
-0.000003
-0.000134
-0.000289
-0.000281
-0.000265
-0.000134
0.000107
0.000115
0.000005
-0.000063
0.000003
0.000144
0.000165
0.000149
0.000050
0.000068
0.000170
0.000262
0.000189
-0.000029
-0.000121
-0.000131
-0.000215
-0.000325
-0.000360
-0.000331
-0.000252
-0.000100
-0.000081
-0.000095
-0.000155
-0.000076
0.000039
0.000144
0.000275
0.000320
0.000142
-0.000095
-0.000315
-0.000386
-0.000365
-0.000283
-0.000123
-0.000144
-0.000163
0.000024
0.000107
0.000021
-0.000126
-0.000199
-0.000087
-0.000005
-0.000100
-0.000257
-0.000291
-0.000194
-0.000171
-0.000268
-0.000218
-0.000194
-0.000247
-0.000184
-0.000118
-0.000134
-0.000139
0.000052
0.000202
0.000147
0.000050
0.000029
-0.000032
-0.000155
-0.000110
-0.000016
-0.000123
-0.000063
0.000058
0.000071
0.000034
0.000136
0.000241
0.000205
0.000157
0.000152
0.000218
0.000231
0.000113
-0.000003
0.000100
0.000199
0.000128
0.000018
0.000060
0.000102
0.000058
0.000087
0.000115
0.000045
0.000037
0.000010
-0.000126
-0.000218
-0.000108
0.000008
-0.000092
-0.000160
-0.000100
-0.000121
-0.000158
-0.000192
-0.000197
-0.000144
-0.000084
-0.000021
-0.000060
-0.000053
-0.000118
-0.000194
-0.000189
-0.000137
-0.000074
-0.000074
-0.000076
-0.000016
0.000010
0.000081
0.000073
0.000037
-0.000123
-0.000192
-0.000168
-0.000152
-0.000302
-0.000294
-0.000087
0.000105
0.000191
0.000165
0.000189
0.000152
0.000121
0.000157
0.000084
0.000068
0.000089
-0.000045
-0.000184
-0.000189
-0.000150
-0.000163
-0.000084
0.000055
-0.000003
-0.000011
0.000144
0.000194
-0.000034
-0.000244
-0.000116
0.000068
0.000016
-0.000008
0.000060
0.000118
0.000100
0.000142
0.000102
-0.000011
0.000045
0.000147
0.000087
-0.000142
-0.000323
-0.000333
-0.000244
-0.000134
-0.000084
0.000026
0.000094
0.000144
0.000142
0.000060
-0.000024
0.000092
0.000226
0.000107
-0.000134
-0.000024
0.000076
0.000068
0.000003
-0.000066
-0.000147
-0.000152
-0.000110
-0.000137
-0.000213
-0.000236
-0.000142
0.000013
0.000134
0.000147
0.000113
0.000142
0.000163
0.000081
-0.000126
-0.000192
-0.000123
0.000010
-0.000018
0.000021
0.000087
0.000207
0.000197
0.000189
0.000097
0.000008
-0.000000
0.000092
0.000031
-0.000131
-0.000226
-0.000110
-0.000045
-0.000005
-0.000003
0.000118
0.000186
0.000134
0.000110
0.000142
0.000163
0.000136
0.000113
0.000118
0.000087
0.000181
0.000205
0.000092
-0.000003
-0.000089
-0.000194
-0.000231
-0.000152
-0.000029
-0.000081
-0.000089
0.000073
0.000107
-0.000024
-0.000063
0.000018
-0.000087
-0.000220
-0.000310
-0.000349
-0.000194
0.000071
0.000247
0.000155
0.000136
0.000113
0.000039
-0.000021
-0.000024
-0.000021
-0.000003
-0.000013
-0.000108
-0.000063
0.000042
0.000131
0.000107
0.000068
-0.000008
-0.000039
-0.000032
-0.000024
0.000003
-0.000024
-0.000081
-0.000026
-0.000026
-0.000076
-0.000074
-0.000016
0.000052
-0.000013
-0.000060
0.000047
0.000126
0.000107
0.000181
0.000181
0.000157
0.000107
0.000113
0.000060
-0.000113
-0.000294
-0.000194
-0.000029
-0.000013
0.000005
-0.000008
-0.000131
-0.000255
-0.000173
-0.000018
-0.000016
-0.000110
0.000005
0.000220
0.000218
0.000170
0.000278
0.000278
0.000087
-0.000066
-0.000008
-0.000013
-0.000150
-0.000084
-0.000029
-0.000110
-0.000092
0.000016
0.000042
-0.000047
0.000003
0.000034
-0.000058
-0.000192
-0.000173
-0.000150
-0.000186
-0.000081
0.000018
-0.000129
-0.000407
-0.000459
-0.000362
-0.000391
-0.000328
-0.000231
-0.000102
-0.000097
0.000047
0.000291
0.000210
0.000034
-0.000034
-0.000000
-0.000076
-0.000189
-0.000079
0.000092
-0.000058
-0.000199
-0.000095
0.000105
0.000210
0.000320
0.000404
0.000433
0.000333
0.000341
0.000265
0.000265
0.000268
0.000260
0.000299
0.000391
0.000338
0.000210
0.000121
0.000107
0.000045
-0.000008
-0.000066
0.000008
0.000031
0.000039
0.000047
0.000128
0.000189
0.000118
0.000186
0.000260
0.000317
0.000336
0.000367
0.000370
0.000262
0.000168
0.000079
0.000026
0.000066
0.000066
0.000055
0.000089
0.000168
0.000226
0.000202
0.000168
0.000097
0.000081
-0.000092
-0.000152
-0.000089
0.000003
0.000045
0.000045
0.000034
0.000102
0.000218
0.000186
-0.000131
-0.000283
-0.000171
0.000058
0.000128
0.000210
0.000307
0.000186
0.000079
0.000092
0.000136
0.000089
0.000029
0.000092
0.000113
0.000144
0.000149
0.000076
0.000097
0.000178
0.000152
0.000173
0.000173
0.000191
0.000134
0.000081
0.000139
0.000218
0.000139
0.000107
0.000178
0.000163
0.000024
-0.000055
-0.000008
-0.000084
-0.000144
-0.000005
0.000165
0.000184
0.000047
0.000018
0.000094
0.000121
0.000157
0.000231
0.000299
0.000260
0.000147
0.000105
0.000149
0.000147
0.000128
0.000128
0.000131
0.000126
0.000034
0.000024
0.000071
0.000094
0.000184
0.000283
0.000149
-0.000026
0.000018
0.000152
0.000215
0.000249
0.000341
0.000202
0.000102
0.000210
0.000233
0.000016
-0.000116
-0.000118
-0.000081
-0.000029
0.000113
0.000262
0.000294
0.000262
0.000354
0.000459
0.000312
0.000218
0.000296
0.000380
0.000354
0.000299
0.000341
0.000435
0.000446
0.000430
0.000475
0.000399
0.000252
0.000207
0.000317
0.000359
0.000281
0.000157
0.000123
0.000094
0.000087
0.000194
0.000231
0.000191
0.000186
0.000323
0.000307
0.000244
0.000296
0.000443
0.000399
0.000254
0.000191
0.000241
0.000268
0.000270
0.000262
0.000215
0.000184
0.000283
0.000304
0.000262
0.000226
0.000212
0.000173
0.000113
0.000113
0.000073
0.000042
0.000165
0.000299
0.000336
0.000341
0.000378
0.000367
0.000304
0.000273
0.000299
0.000270
0.000121
0.000018
0.000118
0.000220
0.000249
0.000207
0.000199
0.000170
0.000173
0.000241
0.000312
0.000304
0.000220
0.000265
0.000278
0.000212
0.000241
0.000281
0.000178
0.000063
0.000013
-0.000092
-0.000215
-0.000210
-0.000097
-0.000110
-0.000066
-0.000050
0.000003
-0.000034
-0.000032
0.000239
0.000456
0.000359
0.000273
0.000289
0.000244
0.000126
0.000173
0.000291
0.000205
0.000113
0.000278
0.000422
0.000336
0.000281
0.000323
0.000244
0.000210
0.000278
0.000383
0.000283
0.000157
0.000228
0.000315
0.000275
0.000312
0.000383
0.000223
0.000031
0.000149
0.000320
0.000349
0.000262
0.000136
-0.000039
-0.000097
-0.000032
0.000068
-0.000045
-0.000236
-0.000126
0.000097
0.000210
0.000270
0.000338
0.000341
0.000239
0.000194
0.000205
0.000265
0.000281
0.000197
0.000149
0.000131
0.000176
0.000178
0.000142
0.000123
0.000092
0.000039
-0.000011
0.000018
0.000079
0.000097
0.000194
0.000236
0.000202
0.000107
0.000144
0.000241
0.000155
0.000136
0.000121
0.000160
0.000165
0.000289
0.000344
0.000354
0.000315
0.000273
0.000315
0.000341
0.000388
0.000323
0.000218
0.000147
0.000037
0.000026
0.000155
0.000310
0.000233
0.000173
0.000176
0.000163
0.000142
0.000186
0.000233
0.000184
0.000094
0.000087
0.000110
0.000189
0.000249
0.000328
0.000281
0.000315
0.000294
0.000317
0.000320
0.000270
0.000236
0.000268
0.000315
0.000341
0.000312
0.000331
0.000359
0.000270
0.000173
0.000247
0.000331
0.000362
0.000344
0.000404
0.000378
0.000357
0.000399
0.000412
0.000268
0.000131
0.000105
0.000089
0.000097
0.000205
0.000226
0.000220
0.000220
0.000241
0.000155
0.000018
0.000131
0.000304
0.000273
0.000260
0.000233
0.000157
0.000018
-0.000053
-0.000045
-0.000058
-0.000026
0.000042
0.000160
0.000105
0.000147
0.000241
0.000168
0.000076
-0.000003
0.000058
0.000115
0.000220
0.000244
0.000215
0.000191
0.000194
0.000184
0.000207
0.000291
0.000323
0.000275
0.000239
0.000244
0.000165
0.000123
0.000170
0.000186
0.000210
0.000199
0.000107
0.000081
0.000021
-0.000005
0.000066
0.000197
0.000307
0.000391
0.000443
0.000470
0.000446
0.000338
0.000236
0.000239
0.000278
0.000344
0.000286
0.000226
0.000170
0.000121
0.000157
0.000199
0.000102
0.000063
0.000139
0.000205
0.000236
0.000226
0.000270
0.000317
0.000315
0.000344
0.000441
0.000354
0.000113
0.000094
0.000241
0.000289
0.000257
0.000331
0.000323
0.000155
0.000060
0.000063
0.000100
0.000144
0.000223
0.000163
0.000160
0.000202
0.000165
0.000155
0.000157
0.000134
0.000152
0.000262
0.000357
0.000370
0.000362
0.000380
0.000352
0.000320
0.000359
0.000336
0.000157
0.000105
0.000197
0.000268
0.000228
0.000228
0.000220
0.000191
0.000210
0.000220
0.000107
-0.000032
0.000076
0.000155
0.000163
0.000239
0.000396
0.000407
0.000344
0.000315
0.000320
0.000244
0.000173
0.000163
0.000191
0.000194
0.000223
0.000312
0.000380
0.000323
0.000281
0.000244
0.000226
0.000252
0.000315
0.000433
0.000367
0.000294
0.000220
0.000144
0.000157
0.000176
0.000142
0.000152
0.000357
0.000446
0.000472
0.000409
0.000362
0.000244
0.000084
0.000016
0.000087
0.000136
0.000170
0.000218
0.000252
0.000328
0.000349
0.000315
0.000286
0.000289
0.000331
0.000380
0.000404
0.000449
0.000367
0.000252
0.000312
0.000304
0.000147
0.000005
0.000021
0.000139
0.000081
0.000081
0.000181
0.000218
0.000181
0.000123
0.000152
0.000220
0.000218
0.000205
0.000207
0.000257
0.000299
0.000273
0.000281
0.000275
0.000346
0.000273
0.000215
0.000281
0.000399
0.000323
0.000281
0.000338
0.000365
0.000310
0.000294
0.000380
0.000346
0.000270
0.000296
0.000296
0.000131
0.000055
0.000163
0.000254
0.000149
0.000118
0.000317
0.000386
0.000333
0.000323
0.000430
0.000407
0.000391
0.000441
0.000425
0.000199
0.000197
0.000304
0.000270
0.000205
0.000349
0.000333
0.000226
0.000257
0.000341
0.000144
0.000008
0.000184
0.000370
0.000231
0.000186
0.000404
0.000506
0.000373
0.000414
0.000409
0.000247
0.000134
0.000194
0.000312
0.000310
0.000260
0.000315
0.000302
0.000260
0.000205
0.000100
0.000115
0.000152
0.000142
0.000197
0.000367
0.000414
0.000331
0.000189
0.000087
0.000139
0.000241
0.000286
0.000273
0.000212
0.000157
0.000178
0.000176
0.000278
0.000273
0.000233
0.000273
0.000409
0.000459
0.000446
0.000401
0.000302
0.000084
0.000055
0.000168
0.000325
0.000323
0.000299
0.000365
0.000378
0.000417
0.000522
0.000546
0.000365
0.000197
0.000220
0.000281
0.000370
0.000393
0.000438
0.000456
0.000451
0.000425
0.000336
0.000199
0.000118
0.000215
0.000302
0.000302
0.000354
0.000401
0.000359
0.000289
0.000294
0.000239
0.000168
0.000149
0.000149
0.000220
0.000375
0.000485
0.000538
0.000483
0.000435
0.000420
0.000331
0.000338
0.000409
0.000430
0.000428
0.000378
0.000409
0.000451
0.000378
0.000338
0.000354
0.000315
0.000336
0.000393
0.000433
0.000378
0.000365
0.000296
0.000289
0.000365
0.000480
0.000522
0.000556
0.000543
0.000428
0.000270
0.000231
0.000236
0.000239
0.000254
0.000320
0.000278
0.000136
0.000071
0.000123
0.000215
0.000302
0.000336
0.000299
0.000328
0.000331
0.000336
0.000270
0.000249
0.000325
0.000210
0.000100
0.000241
0.000352
0.000333
0.000304
0.000328
0.000265
0.000186
0.000278
0.000367
0.000247
0.000076
0.000094
0.000107
0.000149
0.000210
0.000289
0.000210
0.000092
0.000105
0.000144
0.000097
0.000160
0.000231
0.000105
0.000029
0.000207
0.000414
0.000428
0.000331
0.000291
0.000199
0.000147
0.000233
0.000315
0.000176
0.000073
0.000121
0.000210
0.000299
0.000365
0.000435
0.000414
0.000362
0.000370
0.000412
0.000480
0.000488
0.000420
0.000354
0.000317
0.000331
0.000365
0.000380
0.000357
0.000304
0.000228
0.000231
0.000170
0.000084
0.000068
0.000118
0.000207
0.000278
0.000336
0.000378
0.000396
0.000383
0.000373
0.000265
0.000286
0.000315
0.000289
0.000307
0.000409
0.000433
0.000404
0.000346
0.000294
0.000247
0.000249
0.000247
0.000341
0.000320
0.000176
0.000144
0.000325
0.000414
0.000362
0.000409
0.000498
0.000451
0.000417
0.000519
0.000540
0.000373
0.000333
0.000435
0.000428
0.000273
0.000257
0.000341
0.000317
0.000281
0.000294
0.000281
0.000249
0.000265
0.000373
0.000417
0.000409
0.000302
0.000257
0.000283
0.000344
0.000336
0.000320
0.000249
0.000231
0.000220
0.000207
0.000333
0.000443
0.000312
0.000157
0.000157
0.000291
0.000323
0.000291
0.000375
0.000435
0.000346
0.000281
0.000247
0.000257
0.000260
0.000268
0.000302
0.000380
0.000357
0.000304
0.000315
0.000333
0.000320
0.000289
0.000422
0.000480
0.000317
0.000283
0.000346
0.000289
0.000139
0.000102
0.000147
0.000039
-0.000011
0.000147
0.000249
0.000294
0.000380
0.000504
0.000399
0.000252
0.000215
0.000257
0.000273
0.000281
0.000299
0.000352
0.000420
0.000514
0.000509
0.000449
0.000336
0.000244
0.000268
0.000307
0.000341
0.000286
0.000163
0.000147
0.000207
0.000270
0.000365
0.000396
0.000373
0.000375
0.000401
0.000299
0.000296
0.000325
0.000275
0.000207
0.000215
0.000373
0.000420
0.000501
0.000462
0.000375
0.000268
0.000189
0.000160
0.000291
0.000346
0.000312
0.000294
0.000407
0.000375
0.000302
0.000399
0.000527
0.000504
0.000409
0.000407
0.000428
0.000367
0.000352
0.000375
0.000386
0.000386
0.000328
0.000210
0.000226
0.000320
0.000370
0.000281
0.000325
0.000302
0.000202
0.000144
0.000331
0.000422
0.000373
0.000320
0.000430
0.000483
0.000472
0.000485
0.000514
0.000396
0.000181
0.000128
0.000160
0.000207
0.000257
0.000278
0.000241
0.000207
0.000254
0.000299
0.000359
0.000315
0.000220
0.000273
0.000310
0.000265
0.000257
0.000202
0.000100
0.000178
0.000333
0.000378
0.000278
0.000265
0.000399
0.000506
0.000428
0.000401
0.000430
0.000244
0.000147
0.000257
0.000375
0.000370
0.000336
0.000441
0.000498
0.000386
0.000430
0.000509
0.000420
0.000299
0.000294
0.000370
0.000506
0.000472
0.000354
0.000357
0.000349
0.000281
0.000241
0.000336
0.000304
0.000181
0.000197
0.000391
0.000501
0.000493
0.000443
0.000386
0.000252
0.000205
0.000289
0.000417
0.000336
0.000168
0.000163
0.000181
0.000241
0.000349
0.000506
0.000567
0.000519
0.000546
0.000543
0.000467
0.000380
0.000401
0.000378
0.000291
0.000315
0.000365
0.000425
0.000441
0.000451
0.000446
0.000344
0.000244
0.000202
0.000281
0.000315
0.000380
0.000449
0.000535
0.000493
0.000359
0.000286
0.000252
0.000189
0.000147
0.000194
0.000205
0.000223
0.000354
0.000438
0.000433
0.000456
0.000462
0.000420
0.000422
0.000525
0.000554
0.000449
0.000344
0.000386
0.000375
0.000346
0.000270
0.000247
0.000296
0.000281
0.000304
0.000449
0.000464
0.000365
0.000260
0.000344
0.000320
0.000244
0.000320
0.000446
0.000438
0.000441
0.000491
0.000456
0.000325
0.000257
0.000223
0.000176
0.000142
0.000247
0.000388
0.000401
0.000338
0.000299
0.000270
0.000281
0.000331
0.000223
0.000110
0.000163
0.000257
0.000197
0.000160
0.000176
0.000194
0.000254
0.000336
0.000367
0.000205
0.000144
0.000296
0.000396
0.000438
0.000470
0.000417
0.000344
0.000223
0.000199
0.000331
0.000317
0.000207
0.000207
0.000223
0.000270
0.000383
0.000477
0.000496
0.000491
0.000467
0.000441
0.000443
0.000456
0.000438
0.000454
0.000438
0.000449
0.000422
0.000362
0.000346
0.000346
0.000236
0.000165
0.000289
0.000480
0.000464
0.000388
0.000336
0.000283
0.000296
0.000304
0.000386
0.000409
0.000323
0.000383
0.000472
0.000467
0.000404
0.000359
0.000365
0.000414
0.000454
0.000480
0.000488
0.000485
0.000391
0.000265
0.000210
0.000210
0.000226
0.000260
0.000362
0.000470
0.000404
0.000399
0.000425
0.000483
0.000430
0.000378
0.000315
0.000336
0.000354
0.000383
0.000420
0.000464
0.000399
0.000341
0.000315
0.000268
0.000147
0.000113
0.000236
0.000336
0.000407
0.000480
0.000561
0.000548
0.000399
0.000328
0.000310
0.000289
0.000304
0.000399
0.000522
0.000546
0.000467
0.000433
0.000346
0.000296
0.000281
0.000299
0.000328
0.000352
0.000341
0.000357
0.000346
0.000399
0.000433
0.000388
0.000338
0.000296
0.000220
0.000181
0.000199
0.000210
0.000118
0.000097
0.000212
0.000249
0.000176
0.000262
0.000441
0.000454
0.000425
0.000477
0.000554
0.000546
0.000472
0.000477
0.000446
0.000357
0.000352
0.000430
0.000477
0.000470
0.000425
0.000409
0.000383
0.000270
0.000257
0.000275
0.000352
0.000391
0.000307
0.000173
-0.000016
0.000076
0.000270
0.000370
0.000388
0.000388
0.000430
0.000441
0.000349
0.000338
0.000386
0.000443
0.000467
0.000480
0.000401
0.000299
0.000291
0.000407
0.000430
0.000399
0.000454
0.000506
0.000501
0.000475
0.000459
0.000525
0.000404
0.000257
0.000205
0.000328
0.000380
0.000375
0.000409
0.000470
0.000412
0.000393
0.000391
0.000370
0.000315
0.000307
0.000354
0.000362
0.000399
0.000488
0.000517
0.000422
0.000399
0.000396
0.000373
0.000391
0.000449
0.000527
0.000517
0.000483
0.000496
0.000454
0.000302
0.000236
0.000317
0.000412
0.000435
0.000393
0.000349
0.000268
0.000328
0.000425
0.000367
0.000325
0.000291
0.000331
0.000281
0.000401
0.000496
0.000506
0.000525
0.000569
0.000530
0.000514
0.000590
0.000585
0.000540
0.000470
0.000391
0.000296
0.000338
0.000456
0.000420
0.000357
0.000254
0.000254
0.000344
0.000420
0.000477
0.000517
0.000496
0.000483
0.000435
0.000380
0.000312
0.000291
0.000362
0.000388
0.000417
0.000475
0.000506
0.000430
0.000346
0.000367
0.000422
0.000472
0.000383
0.000304
0.000273
0.000380
0.000454
0.000456
0.000488
0.000470
0.000396
0.000346
0.000422
0.000438
0.000375
0.000262
0.000236
0.000344
0.000443
0.000512
0.000617
0.000603
0.000491
0.000393
0.000388
0.000501
0.000533
0.000501
0.000517
0.000456
0.000409
0.000323
0.000254
0.000291
0.000349
0.000370
0.000391
0.000491
0.000533
0.000561
0.000506
0.000477
0.000438
0.000373
0.000404
0.000449
0.000407
0.000359
0.000412
0.000396
0.000325
0.000336
0.000365
0.000362
0.000433
0.000446
0.000441
0.000441
0.000425
0.000488
0.000556
0.000530
0.000456
0.000454
0.000459
0.000349
0.000220
0.000286
0.000354
0.000273
0.000307
0.000464
0.000386
0.000220
0.000186
0.000252
0.000244
0.000257
0.000399
0.000509
0.000472
0.000559
0.000695
0.000656
0.000590
0.000603
0.000572
0.000493
0.000438
0.000491
0.000443
0.000317
0.000323
0.000396
0.000357
0.000304
0.000375
0.000414
0.000336
0.000386
0.000514
0.000590
0.000530
0.000519
0.000467
0.000441
0.000407
0.000451
0.000456
0.000346
0.000349
0.000438
0.000517
0.000509
0.000509
0.000459
0.000383
0.000378
0.000391
0.000422
0.000331
0.000315
0.000341
0.000396
0.000378
0.000449
0.000525
0.000454
0.000391
0.000467
0.000506
0.000527
0.000548
0.000514
0.000433
0.000488
0.000514
0.000472
0.000422
0.000459
0.000485
0.000483
0.000501
0.000548
0.000477
0.000283
0.000184
0.000317
0.000435
0.000412
0.000362
0.000380
0.000401
0.000396
0.000488
0.000567
0.000514
0.000430
0.000383
0.000417
0.000483
0.000488
0.000354
0.000265
0.000286
0.000341
0.000378
0.000425
0.000464
0.000493
0.000522
0.000514
0.000491
0.000417
0.000459
0.000485
0.000367
0.000323
0.000352
0.000396
0.000386
0.000435
0.000375
0.000365
0.000383
0.000464
0.000454
0.000407
0.000430
0.000483
0.000517
0.000477
0.000525
0.000530
0.000454
0.000370
0.000370
0.000425
0.000430
0.000412
0.000399
0.000249
0.000178
0.000278
0.000273
0.000257
0.000278
0.000239
0.000286
0.000391
0.000454
0.000501
0.000475
0.000430
0.000352
0.000262
0.000289
0.000462
0.000525
0.000496
0.000517
0.000525
0.000491
0.000428
0.000422
0.000446
0.000430
0.000338
0.000365
0.000349
0.000289
0.000299
0.000317
0.000367
0.000304
0.000383
0.000441
0.000396
0.000291
0.000212
0.000147
0.000155
0.000291
0.000346
0.000373
0.000472
0.000551
0.000480
0.000262
0.000299
0.000380
0.000438
0.000488
0.000590
0.000582
0.000480
0.000509
0.000627
0.000614
0.000569
0.000564
0.000572
0.000491
0.000401
0.000443
0.000488
0.000480
0.000446
0.000472
0.000496
0.000498
0.000456
0.000420
0.000393
0.000323
0.000352
0.000498
0.000609
0.000580
0.000538
0.000430
0.000333
0.000352
0.000370
0.000438
0.000517
0.000485
0.000540
0.000459
0.000409
0.000430
0.000393
0.000386
0.000428
0.000383
0.000449
0.000554
0.000543
0.000504
0.000488
0.000470
0.000414
0.000346
0.000367
0.000430
0.000425
0.000388
0.000435
0.000412
0.000375
0.000323
0.000291
0.000233
0.000349
0.000477
0.000535
0.000514
0.000488
0.000506
0.000459
0.000428
0.000464
0.000449
0.000480
0.000485
0.000383
0.000312
0.000422
0.000506
0.000475
0.000462
0.000546
0.000635
0.000585
0.000611
0.000619
0.000477
0.000341
0.000346
0.000417
0.000438
0.000404
0.000449
0.000509
0.000577
0.000577
0.000564
0.000530
0.000414
0.000310
0.000286
0.000414
0.000443
0.000477
0.000556
0.000596
0.000540
0.000501
0.000543
0.000567
0.000446
0.000370
0.000359
0.000404
0.000467
0.000480
0.000420
0.000435
0.000459
0.000391
0.000354
0.000370
0.000362
0.000399
0.000514
0.000567
0.000475
0.000438
0.000493
0.000548
0.000538
0.000554
0.000554
0.000446
0.000399
0.000485
0.000483
0.000367
0.000352
0.000488
0.000472
0.000386
0.000396
0.000493
0.000501
0.000480
0.000512
0.000475
0.000362
0.000383
0.000428
0.000399
0.000393
0.000525
0.000585
0.000606
0.000593
0.000619
0.000593
0.000543
0.000509
0.000498
0.000446
0.000454
0.000456
0.000582
0.000590
0.000496
0.000380
0.000404
0.000446
0.000483
0.000548
0.000609
0.000514
0.000365
0.000220
0.000307
0.000331
0.000320
0.000254
0.000344
0.000430
0.000365
0.000312
0.000349
0.000325
0.000239
0.000212
0.000393
0.000493
0.000404
0.000273
0.000367
0.000443
0.000414
0.000393
0.000383
0.000336
0.000333
0.000393
0.000404
0.000344
0.000357
0.000480
0.000535
0.000514
0.000512
0.000396
0.000396
0.000435
0.000517
0.000493
0.000483
0.000456
0.000441
0.000470
0.000496
0.000462
0.000454
0.000493
0.000540
0.000472
0.000373
0.000323
0.000428
0.000477
0.000475
0.000451
0.000443
0.000409
0.000430
0.000430
0.000438
0.000396
0.000357
0.000462
0.000530
0.000572
0.000533
0.000475
0.000409
0.000464
0.000472
0.000357
0.000407
0.000477
0.000506
0.000412
0.000399
0.000323
0.000296
0.000362
0.000378
0.000317
0.000236
0.000228
0.000307
0.000341
0.000428
0.000522
0.000561
0.000559
0.000609
0.000614
0.000575
0.000575
0.000554
0.000525
0.000522
0.000548
0.000575
0.000551
0.000446
0.000315
0.000317
0.000443
0.000572
0.000477
0.000443
0.000470
0.000530
0.000451
0.000365
0.000346
0.000370
0.000331
0.000409
0.000546
0.000517
0.000462
0.000409
0.000409
0.000435
0.000428
0.000506
0.000551
0.000491
0.000391
0.000365
0.000449
0.000540
0.000530
0.000483
0.000491
0.000527
0.000514
0.000569
0.000611
0.000648
0.000611
0.000640
0.000580
0.000554
0.000543
0.000501
0.000470
0.000475
0.000504
0.000525
0.000527
0.000569
0.000575
0.000540
0.000519
0.000498
0.000380
0.000299
0.000331
0.000430
0.000396
0.000352
0.000454
0.000512
0.000393
0.000393
0.000467
0.000498
0.000462
0.000506
0.000498
0.000391
0.000393
0.000491
0.000506
0.000496
0.000504
0.000548
0.000512
0.000525
0.000538
0.000512
0.000354
0.000226
0.000273
0.000333
0.000349
0.000420
0.000509
0.000519
0.000493
0.000533
0.000559
0.000564
0.000577
0.000617
0.000648
0.000638
0.000572
0.000548
0.000430
0.000380
0.000396
0.000409
0.000412
0.000380
0.000454
0.000519
0.000491
0.000540
0.000559
0.000512
0.000501
0.000475
0.000388
0.000331
0.000336
0.000338
0.000362
0.000446
0.000509
0.000480
0.000488
0.000548
0.000588
0.000525
0.000527
0.000603
0.000627
0.000606
0.000582
0.000593
0.000554
0.000569
0.000582
0.000617
0.000554
0.000556
0.000554
0.000517
0.000438
0.000349
0.000365
0.000438
0.000475
0.000480
0.000480
0.000470
0.000546
0.000509
0.000454
0.000572
0.000632
0.000580
0.000561
0.000564
0.000564
0.000496
0.000462
0.000548
0.000485
0.000425
0.000485
0.000522
0.000488
0.000435
0.000393
0.000399
0.000407
0.000396
0.000380
0.000435
0.000538
0.000543
0.000514
0.000470
0.000454
0.000480
0.000517
0.000551
0.000546
0.000567
0.000569
0.000593
0.000540
0.000559
0.000548
0.000496
0.000561
0.000527
0.000496
0.000446
0.000449
0.000498
0.000470
0.000475
0.000517
0.000522
0.000533
0.000617
0.000635
0.000651
0.000609
0.000504
0.000404
0.000333
0.000362
0.000425
0.000380
0.000299
0.000294
0.000325
0.000349
0.000375
0.000454
0.000533
0.000548
0.000543
0.000533
0.000514
0.000575
0.000569
0.000559
0.000590
0.000582
0.000569
0.000561
0.000598
0.000575
0.000525
0.000496
0.000506
0.000564
0.000593
0.000611
0.000575
0.000548
0.000564
0.000593
0.000596
0.000569
0.000546
0.000504
0.000488
0.000525
0.000554
0.000601
0.000582
0.000496
0.000417
0.000388
0.000409
0.000302
0.000202
0.000304
0.000449
0.000425
0.000428
0.000391
0.000315
0.000352
0.000480
0.000617
0.000611
0.000611
0.000640
0.000593
0.000569
0.000577
0.000601
0.000577
0.000585
0.000580
0.000593
0.000603
0.000598
0.000530
0.000412
0.000422
0.000493
0.000512
0.000530
0.000540
0.000535
0.000535
0.000514
0.000446
0.000477
0.000525
0.000551
0.000546
0.000588
0.000651
0.000638
0.000645
0.000635
0.000567
0.000467
0.000352
0.000412
0.000451
0.000446
0.000443
0.000412
0.000433
0.000480
0.000501
0.000509
0.000496
0.000517
0.000548
0.000554
0.000554
0.000535
0.000470
0.000462
0.000498
0.000572
0.000603
0.000593
0.000567
0.000501
0.000467
0.000459
0.000349
0.000281
0.000331
0.000464
0.000527
0.000459
0.000399
0.000388
0.000338
0.000386
0.000414
0.000525
0.000561
0.000546
0.000533
0.000546
0.000554
0.000611
0.000624
0.000603
0.000588
0.000582
0.000548
0.000514
0.000451
0.000472
0.000522
0.000548
0.000593
0.000619
0.000585
0.000556
0.000420
0.000383
0.000462
0.000569
0.000593
0.000653
0.000677
0.000627
0.000614
0.000653
0.000651
0.000575
0.000530
0.000525
0.000354
0.000260
0.000378
0.000477
0.000409
0.000383
0.000441
0.000514
0.000498
0.000533
0.000559
0.000559
0.000538
0.000577
0.000619
0.000611
0.000601
0.000577
0.000462
0.000333
0.000367
0.000459
0.000428
0.000414
0.000485
0.000585
0.000575
0.000569
0.000572
0.000522
0.000493
0.000543
0.000561
0.000535
0.000446
0.000451
0.000475
0.000477
0.000456
0.000496
0.000538
0.000617
0.000585
0.000567
0.000491
0.000454
0.000462
0.000451
0.000409
0.000446
0.000525
0.000593
0.000530
0.000504
0.000491
0.000533
0.000575
0.000585
0.000627
0.000630
0.000575
0.000561
0.000601
0.000567
0.000519
0.000533
0.000575
0.000525
0.000530
0.000554
0.000464
0.000409
0.000414
0.000378
0.000344
0.000399
0.000467
0.000443
0.000454
0.000551
0.000601
0.000512
0.000475
0.000551
0.000548
0.000538
0.000498
0.000540
0.000501
0.000443
0.000496
0.000593
0.000525
0.000430
0.000401
0.000527
0.000554
0.000435
0.000456
0.000533
0.000588
0.000582
0.000527
0.000496
0.000441
0.000480
0.000454
0.000498
0.000533
0.000559
0.000441
0.000370
0.000412
0.000514
0.000530
0.000509
0.000554
0.000577
0.000493
0.000488
0.000609
0.000640
0.000556
0.000606
0.000624
0.000564
0.000470
0.000491
0.000533
0.000527
0.000475
0.000483
0.000514
0.000512
0.000480
0.000564
0.000598
0.000603
0.000585
0.000580
0.000412
0.000270
0.000354
0.000533
0.000527
0.000496
0.000564
0.000627
0.000590
0.000535
0.000519
0.000480
0.000391
0.000380
0.000409
0.000420
0.000449
0.000540
0.000512
0.000451
0.000543
0.000590
0.000546
0.000519
0.000533
0.000569
0.000546
0.000559
0.000543
0.000559
0.000559
0.000438
0.000341
0.000349
0.000393
0.000456
0.000540
0.000601
0.000559
0.000509
0.000491
0.000530
0.000556
0.000567
0.000540
0.000498
0.000522
0.000582
0.000582
0.000598
0.000506
0.000441
0.000407
0.000393
0.000428
0.000480
0.000538
0.000567
0.000596
0.000648
0.000640
0.000653
0.000577
0.000577
0.000559
0.000559
0.000575
0.000572
0.000561
0.000535
0.000572
0.000575
0.000561
0.000554
0.000543
0.000569
0.000622
0.000522
0.000396
0.000428
0.000530
0.000548
0.000525
0.000577
0.000488
0.000456
0.000533
0.000572
0.000483
0.000506
0.000582
0.000561
0.000548
0.000598
0.000554
0.000533
0.000470
0.000517
0.000477
0.000441
0.000428
0.000459
0.000472
0.000472
0.000519
0.000540
0.000561
0.000567
0.000519
0.000404
0.000375
0.000430
0.000462
0.000472
0.000525
0.000559
0.000538
0.000480
0.000480
0.000443
0.000399
0.000441
0.000464
0.000509
0.000535
0.000588
0.000635
0.000614
0.000611
0.000632
0.000569
0.000527
0.000546
0.000598
0.000569
0.000506
0.000472
0.000488
0.000462
0.000380
0.000370
0.000407
0.000451
0.000449
0.000428
0.000522
0.000593
0.000635
0.000643
0.000632
0.000564
0.000472
0.000517
0.000496
0.000412
0.000441
0.000514
0.000525
0.000496
0.000512
0.000527
0.000498
0.000512
0.000567
0.000572
0.000535
0.000459
0.000472
0.000464
0.000380
0.000417
0.000512
0.000514
0.000501
0.000543
0.000546
0.000533
0.000572
0.000535
0.000483
0.000365
0.000289
0.000302
0.000367
0.000504
