Start time = 18:30:23.983321
End time = 18:30:33.925867
laser_energy = 7.040
channel_1_dial = 850
channel_2_dial = 850
channel_3_dial = 850
channel_4_dial = 850
NG-1-LII = 0
NG-3-15399 = 0
NG-4-LII = 0
NG-4-15399 = 0
NG-5-LII = 0
NG-5-15399 = 0
NG-9-LII = 0
NG-9-15399 = 0
NG-10-01 = 0
NG-11-15399 = 0
NG-12-15399 = 0
NG-4A-2001 = 0
NG-4B-2001 = 0
NG-5A-2001 = 0
NG-3-2001 = 0
NG-5B-2001 = 0
NG-1-2001 = 0
NG-9-2001 = 0
NG-10-2001 = 0
NG-11-2001 = 0
NG-12-2001 = 0
AND-200SN09 = 0
AND-100SN09 = 0
AND-050SN09 = 0
AND-030SN09 = 0
AND-015SN05 = 0
PMT#1Voltage = 0
PMT#2Voltage = 0
t0(sec) = 0.000000E+0
dt(sec) = 4.000000E-10
F1:INSP "
DESCRIPTOR_NAME    : WAVEDESC           
TEMPLATE_NAME      : LECROY_2_3         
COMM_TYPE          : word               
COMM_ORDER         : HIFIRST            
WAVE_DESCRIPTOR    : 346                
USER_TEXT          : 0                  
RES_DESC1          : 0                  
TRIGTIME_ARRAY     : 0                  
RIS_TIME_ARRAY     : 0                  
RES_ARRAY1         : 0                  
WAVE_ARRAY_1       : 10002              
WAVE_ARRAY_2       : 0                  
RES_ARRAY2         : 0                  
RES_ARRAY3         : 0                  
INSTRUMENT_NAME    : LECROYHDO6104      
INSTRUMENT_NUMBER  : 6308               
TRACE_LABEL        :                    
RESERVED1          : 5001               
RESERVED2          : 0                  
WAVE_ARRAY_COUNT   : 5001               
PNTS_PER_SCREEN    : 5000               
FIRST_VALID_PNT    : 0                  
LAST_VALID_PNT     : 5000               
FIRST_POINT        : 0                  
SPARSING_FACTOR    : 1                  
SEGMENT_INDEX      : 0                  
SUBARRAY_COUNT     : 1                  
SWEEPS_PER_ACQ     : 200                
POINTS_PER_PAIR    : 0                  
PAIR_OFFSET        : 0                  
VERTICAL_GAIN      : 2.6238e-006        
VERTICAL_OFFSET    : 6.5501e-002        
MAX_VALUE          : 3.0816e+004        
MIN_VALUE          : 1.3388e+004        
NOMINAL_BITS       : 16                 
NOM_SUBARRAY_COUNT : 1                  
HORIZ_INTERVAL     : 4.0000e-010        
HORIZ_OFFSET       : -2.00000000e-007   
PIXEL_OFFSET       : -2.00000000e-007   
VERTUNIT           : Unit Name = V
HORUNIT            : Unit Name = S
HORIZ_UNCERTAINTY  : 1.0000e-012        
TRIGGER_TIME       : Date = APR 17, 2024, Time = 19:30:19.806297508
ACQ_DURATION       : 1.0064e+001        
RECORD_TYPE        : single_sweep       
PROCESSING_DONE    : no_processing      
RESERVED5          : 0                  
RIS_SWEEPS         : 1                  
TIMEBASE           : 200_ns/div         
VERT_COUPLING      : DC_50_Ohms         
PROBE_ATT          : 1.0000e+000        
FIXED_VERT_GAIN    : 5_mV/div           
BANDWIDTH_LIMIT    : off                
VERTICAL_VERNIER   : 1.1600e+000        
ACQ_VERT_OFFSET    : 0.0000e+000        
WAVE_SOURCE        : UNKNOWN            
"
0.000163
0.000142
0.000142
0.000176
0.000173
0.000155
0.000176
0.000202
0.000199
0.000205
0.000199
0.000189
0.000181
0.000157
0.000136
0.000139
0.000139
0.000170
0.000176
0.000184
0.000181
0.000142
0.000149
0.000205
0.000155
0.000168
0.000173
0.000189
0.000144
0.000152
0.000170
0.000144
0.000170
0.000176
0.000165
0.000207
0.000197
0.000157
0.000191
0.000194
0.000173
0.000191
0.000173
0.000202
0.000160
0.000129
0.000160
0.000144
0.000136
0.000168
0.000173
0.000170
0.000165
0.000181
0.000163
0.000176
0.000152
0.000152
0.000144
0.000189
0.000170
0.000163
0.000173
0.000197
0.000212
0.000228
0.000184
0.000197
0.000176
0.000194
0.000155
0.000147
0.000134
0.000152
0.000144
0.000144
0.000126
0.000142
0.000163
0.000168
0.000178
0.000189
0.000191
0.000205
0.000215
0.000194
0.000194
0.000191
0.000163
0.000178
0.000173
0.000181
0.000165
0.000160
0.000163
0.000152
0.000186
0.000149
0.000134
0.000176
0.000189
0.000184
0.000178
0.000184
0.000202
0.000165
0.000207
0.000220
0.000176
0.000205
0.000202
0.000186
0.000194
0.000178
0.000173
0.000189
0.000157
0.000152
0.000163
0.000152
0.000157
0.000157
0.000147
0.000168
0.000149
0.000165
0.000152
0.000173
0.000168
0.000176
0.000178
0.000155
0.000199
0.000186
0.000205
0.000205
0.000186
0.000194
0.000220
0.000186
0.000170
0.000181
0.000157
0.000181
0.000165
0.000110
0.000134
0.000149
0.000157
0.000165
0.000168
0.000178
0.000155
0.000163
0.000210
0.000226
0.000194
0.000184
0.000189
0.000147
0.000144
0.000142
0.000147
0.000163
0.000160
0.000165
0.000165
0.000165
0.000176
0.000168
0.000176
0.000168
0.000157
0.000173
0.000186
0.000170
0.000170
0.000170
0.000178
0.000199
0.000178
0.000160
0.000160
0.000165
0.000197
0.000176
0.000181
0.000189
0.000181
0.000168
0.000197
0.000178
0.000181
0.000181
0.000163
0.000197
0.000218
0.000194
0.000207
0.000194
0.000178
0.000178
0.000176
0.000189
0.000199
0.000160
0.000194
0.000202
0.000197
0.000199
0.000181
0.000197
0.000191
0.000205
0.000170
0.000163
0.000178
0.000168
0.000176
0.000160
0.000147
0.000131
0.000147
0.000155
0.000160
0.000152
0.000123
0.000144
0.000134
0.000131
0.000170
0.000173
0.000168
0.000186
0.000194
0.000210
0.000202
0.000152
0.000191
0.000181
0.000173
0.000194
0.000168
0.000181
0.000181
0.000163
0.000189
0.000205
0.000163
0.000136
0.000170
0.000149
0.000157
0.000165
0.000165
0.000199
0.000210
0.000186
0.000184
0.000165
0.000163
0.000165
0.000168
0.000176
0.000173
0.000139
0.000165
0.000176
0.000152
0.000176
0.000155
0.000160
0.000181
0.000157
0.000170
0.000191
0.000173
0.000212
0.000207
0.000212
0.000186
0.000170
0.000170
0.000194
0.000186
0.000136
0.000165
0.000155
0.000147
0.000134
0.000144
0.000149
0.000139
0.000181
0.000157
0.000215
0.000186
0.000176
0.000197
0.000218
0.000218
0.000205
0.000215
0.000202
0.000210
0.000194
0.000184
0.000184
0.000144
0.000170
0.000163
0.000170
0.000144
0.000170
0.000176
0.000181
0.000165
0.000139
0.000152
0.000168
0.000165
0.000142
0.000147
0.000170
0.000191
0.000181
0.000189
0.000210
0.000212
0.000165
0.000191
0.000173
0.000149
0.000136
0.000160
0.000134
0.000147
0.000131
0.000131
0.000181
0.000149
0.000173
0.000191
0.000197
0.000199
0.000176
0.000205
0.000197
0.000163
0.000194
0.000191
0.000176
0.000186
0.000173
0.000170
0.000152
0.000155
0.000170
0.000134
0.000147
0.000155
0.000147
0.000165
0.000199
0.000191
0.000205
0.000165
0.000202
0.000210
0.000202
0.000218
0.000207
0.000186
0.000181
0.000184
0.000178
0.000178
0.000136
0.000126
0.000142
0.000118
0.000115
0.000113
0.000144
0.000155
0.000134
0.000157
0.000186
0.000178
0.000163
0.000205
0.000202
0.000228
0.000207
0.000197
0.000197
0.000191
0.000191
0.000181
0.000184
0.000160
0.000163
0.000170
0.000157
0.000144
0.000105
0.000121
0.000142
0.000149
0.000165
0.000194
0.000207
0.000168
0.000176
0.000173
0.000157
0.000186
0.000186
0.000249
0.000210
0.000194
0.000186
0.000186
0.000181
0.000163
0.000144
0.000134
0.000144
0.000115
0.000144
0.000142
0.000155
0.000139
0.000173
0.000155
0.000157
0.000186
0.000199
0.000268
0.000260
0.000247
0.000207
0.000155
0.000136
0.000160
0.000152
0.000189
0.000181
0.000197
0.000202
0.000223
0.000212
0.000181
0.000181
0.000113
0.000073
0.000097
0.000108
0.000126
0.000160
0.000173
0.000168
0.000165
0.000176
0.000241
0.000268
0.000291
0.000296
0.000312
0.000257
0.000207
0.000155
0.000123
0.000139
0.000123
0.000129
0.000131
0.000131
0.000134
0.000123
0.000144
0.000149
0.000155
0.000194
0.000212
0.000215
0.000210
0.000223
0.000283
0.000268
0.000233
0.000239
0.000212
0.000194
0.000176
0.000147
0.000121
0.000058
0.000058
0.000058
0.000081
0.000060
0.000089
0.000108
0.000110
0.000079
0.000060
0.000118
0.000184
0.000239
0.000365
0.000401
0.000417
0.000388
0.000354
0.000310
0.000275
0.000170
0.000113
0.000092
0.000021
-0.000008
-0.000021
-0.000008
0.000047
0.000084
0.000142
0.000199
0.000236
0.000239
0.000286
0.000291
0.000286
0.000247
0.000220
0.000186
0.000149
0.000149
0.000157
0.000178
0.000176
0.000136
0.000157
0.000168
0.000184
0.000212
0.000244
0.000268
0.000254
0.000247
0.000239
0.000252
0.000191
0.000170
0.000139
0.000105
0.000050
0.000005
0.000016
-0.000016
-0.000197
-0.000451
-0.000806
-0.001372
-0.002241
-0.003474
-0.004930
-0.006567
-0.008207
-0.009847
-0.011230
-0.012377
-0.013500
-0.014394
-0.014992
-0.015357
-0.015696
-0.015913
-0.016000
-0.015906
-0.015879
-0.015811
-0.015546
-0.015281
-0.014869
-0.014274
-0.013707
-0.013295
-0.012862
-0.012426
-0.012025
-0.011781
-0.011479
-0.011049
-0.010598
-0.010254
-0.009871
-0.009514
-0.009299
-0.009031
-0.008729
-0.008422
-0.008236
-0.008018
-0.007711
-0.007410
-0.007223
-0.007058
-0.006895
-0.006659
-0.006413
-0.006142
-0.005967
-0.005820
-0.005880
-0.006090
-0.006190
-0.006224
-0.006229
-0.006232
-0.006274
-0.006413
-0.006504
-0.006426
-0.006295
-0.006158
-0.005980
-0.005940
-0.005977
-0.005988
-0.005938
-0.005814
-0.005728
-0.005662
-0.005649
-0.005699
-0.005730
-0.005733
-0.005654
-0.005510
-0.005426
-0.005261
-0.005109
-0.004943
-0.004728
-0.004550
-0.004356
-0.004285
-0.004235
-0.004154
-0.004043
-0.003944
-0.003986
-0.003952
-0.003938
-0.003970
-0.004007
-0.003936
-0.003841
-0.003707
-0.003558
-0.003435
-0.003317
-0.003296
-0.003261
-0.003243
-0.003175
-0.003099
-0.003057
-0.003059
-0.003115
-0.003183
-0.003259
-0.003217
-0.003107
-0.003020
-0.002907
-0.002829
-0.002802
-0.002758
-0.002710
-0.002729
-0.002655
-0.002642
-0.002650
-0.002671
-0.002684
-0.002632
-0.002574
-0.002543
-0.002453
-0.002369
-0.002335
-0.002327
-0.002304
-0.002343
-0.002461
-0.002545
-0.002571
-0.002621
-0.002647
-0.002692
-0.002595
-0.002511
-0.002414
-0.002309
-0.002238
-0.002028
-0.001921
-0.001879
-0.001845
-0.001850
-0.001782
-0.001753
-0.001677
-0.001650
-0.001635
-0.001580
-0.001454
-0.001399
-0.001417
-0.001406
-0.001475
-0.001538
-0.001574
-0.001582
-0.001645
-0.001650
-0.001711
-0.001795
-0.001826
-0.001871
-0.001871
-0.001897
-0.001884
-0.001863
-0.001805
-0.001721
-0.001598
-0.001527
-0.001446
-0.001383
-0.001362
-0.001383
-0.001372
-0.001409
-0.001412
-0.001417
-0.001420
-0.001454
-0.001475
-0.001451
-0.001438
-0.001488
-0.001469
-0.001430
-0.001420
-0.001438
-0.001425
-0.001388
-0.001396
-0.001414
-0.001430
-0.001409
-0.001364
-0.001307
-0.001191
-0.001139
-0.001060
-0.001002
-0.001008
-0.000942
-0.000966
-0.000963
-0.000884
-0.000911
-0.001000
-0.001092
-0.001152
-0.001194
-0.001236
-0.001278
-0.001262
-0.001241
-0.001136
-0.001084
-0.000984
-0.000871
-0.000811
-0.000790
-0.000740
-0.000714
-0.000708
-0.000724
-0.000695
-0.000708
-0.000740
-0.000808
-0.000837
-0.000916
-0.000971
-0.001005
-0.001057
-0.001042
-0.001036
-0.000979
-0.000937
-0.000858
-0.000819
-0.000795
-0.000698
-0.000674
-0.000667
-0.000695
-0.000706
-0.000729
-0.000740
-0.000761
-0.000787
-0.000816
-0.000832
-0.000832
-0.000806
-0.000806
-0.000795
-0.000816
-0.000866
-0.000861
-0.000876
-0.000855
-0.000821
-0.000782
-0.000785
-0.000766
-0.000740
-0.000732
-0.000680
-0.000669
-0.000648
-0.000651
-0.000687
-0.000693
-0.000659
-0.000651
-0.000711
-0.000743
-0.000753
-0.000743
-0.000766
-0.000761
-0.000750
-0.000695
-0.000651
-0.000567
-0.000501
-0.000422
-0.000365
-0.000352
-0.000336
-0.000318
-0.000339
-0.000344
-0.000399
-0.000443
-0.000506
-0.000562
-0.000651
-0.000695
-0.000808
-0.000871
-0.000884
-0.000908
-0.000845
-0.000816
-0.000716
-0.000640
-0.000538
-0.000496
-0.000415
-0.000360
-0.000323
-0.000341
-0.000299
-0.000299
-0.000276
-0.000262
-0.000318
-0.000328
-0.000433
-0.000472
-0.000478
-0.000475
-0.000546
-0.000554
-0.000569
-0.000564
-0.000538
-0.000530
-0.000478
-0.000488
-0.000499
-0.000470
-0.000499
-0.000470
-0.000459
-0.000454
-0.000433
-0.000404
-0.000409
-0.000409
-0.000457
-0.000464
-0.000509
-0.000572
-0.000567
-0.000577
-0.000604
-0.000632
-0.000593
-0.000611
-0.000580
-0.000520
-0.000488
-0.000386
-0.000352
-0.000320
-0.000289
-0.000281
-0.000260
-0.000276
-0.000283
-0.000286
-0.000310
-0.000402
-0.000501
-0.000530
-0.000596
-0.000627
-0.000640
-0.000667
-0.000674
-0.000677
-0.000611
-0.000554
-0.000488
-0.000412
-0.000391
-0.000352
-0.000349
-0.000302
-0.000260
-0.000255
-0.000273
-0.000307
-0.000318
-0.000299
-0.000294
-0.000276
-0.000270
-0.000283
-0.000283
-0.000360
-0.000381
-0.000396
-0.000430
-0.000454
-0.000443
-0.000425
-0.000420
-0.000381
-0.000339
-0.000299
-0.000325
-0.000365
-0.000383
-0.000344
-0.000336
-0.000354
-0.000357
-0.000360
-0.000367
-0.000412
-0.000383
-0.000375
-0.000417
-0.000433
-0.000470
-0.000475
-0.000438
-0.000388
-0.000344
-0.000257
-0.000215
-0.000199
-0.000192
-0.000184
-0.000192
-0.000228
-0.000213
-0.000234
-0.000262
-0.000325
-0.000354
-0.000383
-0.000417
-0.000475
-0.000446
-0.000436
-0.000491
-0.000541
-0.000533
-0.000483
-0.000412
-0.000349
-0.000299
-0.000186
-0.000165
-0.000160
-0.000142
-0.000118
-0.000152
-0.000186
-0.000234
-0.000283
-0.000304
-0.000362
-0.000378
-0.000370
-0.000399
-0.000394
-0.000375
-0.000336
-0.000333
-0.000407
-0.000344
-0.000307
-0.000262
-0.000249
-0.000194
-0.000113
-0.000144
-0.000171
-0.000186
-0.000205
-0.000234
-0.000236
-0.000260
-0.000234
-0.000260
-0.000344
-0.000425
-0.000433
-0.000441
-0.000457
-0.000412
-0.000357
-0.000354
-0.000388
-0.000344
-0.000344
-0.000346
-0.000373
-0.000310
-0.000310
-0.000291
-0.000236
-0.000207
-0.000178
-0.000192
-0.000257
-0.000257
-0.000281
-0.000344
-0.000383
-0.000375
-0.000331
-0.000341
-0.000344
-0.000302
-0.000262
-0.000213
-0.000160
-0.000136
-0.000076
-0.000079
-0.000058
-0.000021
-0.000055
-0.000068
-0.000105
-0.000142
-0.000192
-0.000228
-0.000315
-0.000349
-0.000352
-0.000388
-0.000383
-0.000341
-0.000307
-0.000299
-0.000273
-0.000255
-0.000199
-0.000189
-0.000213
-0.000171
-0.000168
-0.000165
-0.000150
-0.000121
-0.000105
-0.000116
-0.000116
-0.000155
-0.000181
-0.000218
-0.000262
-0.000302
-0.000341
-0.000352
-0.000394
-0.000378
-0.000323
-0.000302
-0.000297
-0.000278
-0.000236
-0.000218
-0.000157
-0.000129
-0.000081
-0.000074
-0.000081
-0.000084
-0.000108
-0.000087
-0.000092
-0.000126
-0.000176
-0.000189
-0.000202
-0.000234
-0.000239
-0.000236
-0.000249
-0.000255
-0.000281
-0.000249
-0.000207
-0.000220
-0.000189
-0.000176
-0.000168
-0.000150
-0.000097
-0.000063
-0.000063
-0.000108
-0.000105
-0.000118
-0.000197
-0.000184
-0.000184
-0.000247
-0.000289
-0.000299
-0.000325
-0.000318
-0.000352
-0.000352
-0.000297
-0.000281
-0.000281
-0.000241
-0.000202
-0.000197
-0.000168
-0.000192
-0.000150
-0.000131
-0.000168
-0.000168
-0.000155
-0.000199
-0.000236
-0.000244
-0.000244
-0.000234
-0.000255
-0.000228
-0.000231
-0.000202
-0.000210
-0.000207
-0.000171
-0.000173
-0.000168
-0.000147
-0.000134
-0.000116
-0.000144
-0.000147
-0.000113
-0.000129
-0.000102
-0.000081
-0.000102
-0.000134
-0.000136
-0.000157
-0.000160
-0.000199
-0.000186
-0.000213
-0.000197
-0.000207
-0.000189
-0.000192
-0.000171
-0.000152
-0.000134
-0.000142
-0.000110
-0.000160
-0.000123
-0.000102
-0.000108
-0.000100
-0.000079
-0.000126
-0.000173
-0.000168
-0.000215
-0.000210
-0.000215
-0.000239
-0.000226
-0.000210
-0.000178
-0.000157
-0.000147
-0.000152
-0.000100
-0.000131
-0.000084
-0.000063
-0.000055
-0.000013
-0.000008
-0.000053
-0.000050
-0.000047
-0.000060
-0.000074
-0.000068
-0.000129
-0.000152
-0.000176
-0.000144
-0.000142
-0.000207
-0.000215
-0.000173
-0.000160
-0.000173
-0.000176
-0.000126
-0.000084
-0.000118
-0.000116
-0.000076
-0.000076
-0.000165
-0.000142
-0.000100
-0.000163
-0.000165
-0.000189
-0.000171
-0.000147
-0.000186
-0.000118
-0.000084
-0.000087
-0.000089
-0.000084
-0.000100
-0.000081
-0.000081
-0.000055
-0.000026
-0.000013
-0.000055
-0.000042
-0.000034
-0.000018
-0.000074
-0.000047
-0.000084
-0.000097
-0.000139
-0.000168
-0.000139
-0.000136
-0.000134
-0.000139
-0.000108
-0.000097
-0.000029
-0.000029
0.000018
0.000018
-0.000013
-0.000024
-0.000018
-0.000013
-0.000003
-0.000003
-0.000008
-0.000016
-0.000071
-0.000084
-0.000058
-0.000118
-0.000176
-0.000202
-0.000234
-0.000236
-0.000194
-0.000171
-0.000139
-0.000139
-0.000123
-0.000074
-0.000021
-0.000016
-0.000003
0.000029
0.000039
0.000003
-0.000058
-0.000089
-0.000129
-0.000168
-0.000165
-0.000152
-0.000171
-0.000152
-0.000150
-0.000142
-0.000131
-0.000126
-0.000126
-0.000126
-0.000105
-0.000126
-0.000097
-0.000042
-0.000008
-0.000037
-0.000084
-0.000110
-0.000102
-0.000100
-0.000126
-0.000129
-0.000121
-0.000121
-0.000134
-0.000136
-0.000123
-0.000092
-0.000110
-0.000079
-0.000076
-0.000063
-0.000105
-0.000116
-0.000068
-0.000076
-0.000071
-0.000068
-0.000029
-0.000042
-0.000050
-0.000053
-0.000074
-0.000081
-0.000084
-0.000089
-0.000089
-0.000092
-0.000089
-0.000076
-0.000068
-0.000095
-0.000102
-0.000102
-0.000076
-0.000123
-0.000131
-0.000113
-0.000050
-0.000058
-0.000045
-0.000011
-0.000047
-0.000013
-0.000011
-0.000016
-0.000034
-0.000055
-0.000066
-0.000032
-0.000060
-0.000042
-0.000060
-0.000100
-0.000092
-0.000118
-0.000108
-0.000126
-0.000136
-0.000160
-0.000136
-0.000092
-0.000102
-0.000095
-0.000063
-0.000058
-0.000039
0.000008
0.000018
0.000026
0.000018
-0.000029
-0.000074
-0.000076
-0.000071
-0.000055
-0.000055
-0.000084
-0.000071
-0.000102
-0.000131
-0.000126
-0.000121
-0.000139
-0.000152
-0.000139
-0.000076
-0.000092
-0.000047
-0.000016
-0.000011
0.000008
0.000024
-0.000008
-0.000016
-0.000047
-0.000060
-0.000039
-0.000011
-0.000050
-0.000039
-0.000047
-0.000042
-0.000045
-0.000055
-0.000005
-0.000003
-0.000013
-0.000029
-0.000034
0.000003
-0.000000
0.000005
0.000026
0.000031
0.000034
0.000003
0.000021
0.000045
-0.000000
-0.000037
-0.000029
-0.000050
-0.000087
-0.000084
-0.000087
-0.000066
-0.000039
-0.000074
-0.000081
-0.000047
-0.000024
-0.000039
-0.000018
-0.000021
-0.000029
-0.000050
-0.000060
0.000010
-0.000016
-0.000037
-0.000039
-0.000050
-0.000092
-0.000121
-0.000108
-0.000087
-0.000108
-0.000123
-0.000121
-0.000081
-0.000097
-0.000110
-0.000092
-0.000055
-0.000074
-0.000084
-0.000105
-0.000097
-0.000105
-0.000102
-0.000050
-0.000037
-0.000055
-0.000055
-0.000092
-0.000047
-0.000026
-0.000026
0.000003
0.000013
0.000010
0.000024
0.000042
0.000018
-0.000011
-0.000021
-0.000021
0.000026
0.000008
0.000008
0.000060
0.000052
0.000026
0.000026
0.000026
0.000010
0.000008
-0.000050
-0.000039
-0.000037
-0.000081
-0.000102
-0.000066
-0.000055
-0.000066
-0.000047
-0.000042
-0.000045
-0.000029
-0.000011
-0.000011
0.000024
0.000021
-0.000024
-0.000039
-0.000058
-0.000097
-0.000081
-0.000110
-0.000074
-0.000060
-0.000097
-0.000063
-0.000037
-0.000045
-0.000042
-0.000011
0.000037
-0.000008
0.000016
0.000073
0.000100
0.000076
0.000076
0.000087
0.000079
0.000055
0.000058
0.000058
0.000029
0.000026
0.000003
-0.000003
-0.000003
-0.000016
-0.000055
-0.000087
-0.000116
-0.000102
-0.000081
-0.000053
-0.000000
0.000008
0.000031
0.000047
0.000005
0.000029
0.000037
0.000013
0.000045
0.000013
0.000013
0.000016
0.000024
0.000047
-0.000021
-0.000011
-0.000026
-0.000037
-0.000021
-0.000008
0.000013
0.000045
0.000058
0.000031
0.000010
0.000018
0.000039
0.000013
0.000045
0.000034
-0.000008
0.000016
0.000029
0.000024
0.000042
0.000050
0.000021
-0.000021
-0.000042
-0.000063
-0.000032
-0.000068
-0.000060
-0.000021
-0.000034
-0.000011
-0.000034
-0.000047
-0.000018
-0.000011
-0.000024
-0.000042
-0.000032
-0.000026
-0.000058
-0.000055
-0.000039
-0.000053
-0.000042
-0.000039
-0.000042
-0.000055
-0.000071
-0.000063
-0.000084
-0.000053
-0.000021
-0.000011
0.000045
0.000039
0.000024
0.000045
0.000045
0.000034
-0.000013
-0.000021
-0.000008
-0.000005
0.000013
0.000016
0.000003
0.000010
0.000016
0.000034
0.000063
0.000034
0.000016
-0.000000
0.000016
0.000021
0.000013
0.000021
0.000052
0.000055
0.000052
0.000047
0.000071
0.000052
0.000071
0.000042
0.000024
-0.000011
-0.000034
-0.000021
-0.000045
-0.000037
-0.000005
-0.000016
0.000003
0.000031
0.000026
0.000008
0.000045
0.000016
-0.000016
0.000008
0.000018
0.000008
0.000047
0.000068
0.000052
0.000010
0.000029
0.000024
0.000042
0.000045
0.000029
-0.000011
-0.000074
-0.000100
-0.000129
-0.000095
-0.000037
-0.000039
-0.000045
-0.000029
0.000010
0.000013
0.000039
0.000052
0.000063
0.000068
0.000013
0.000039
0.000037
0.000008
0.000026
-0.000005
-0.000021
0.000003
0.000003
0.000005
0.000042
0.000037
-0.000021
0.000034
0.000039
0.000055
0.000076
0.000068
0.000092
0.000034
0.000052
0.000039
0.000058
0.000008
-0.000016
-0.000045
-0.000058
-0.000060
-0.000095
-0.000066
-0.000016
-0.000024
-0.000000
0.000010
-0.000000
-0.000029
-0.000018
-0.000076
-0.000071
-0.000053
-0.000034
-0.000016
0.000042
0.000034
0.000060
0.000068
0.000092
0.000094
0.000058
0.000008
0.000042
0.000005
-0.000024
0.000005
0.000026
-0.000011
0.000013
0.000034
0.000052
0.000037
0.000010
0.000013
0.000060
0.000029
0.000055
0.000042
0.000037
0.000034
-0.000000
0.000018
0.000039
0.000073
0.000079
0.000087
0.000089
0.000055
0.000045
0.000005
-0.000011
-0.000032
-0.000013
-0.000026
-0.000011
-0.000050
-0.000029
0.000005
0.000005
0.000039
0.000026
0.000042
0.000089
0.000092
0.000079
0.000118
0.000105
0.000063
0.000021
0.000016
-0.000018
-0.000008
-0.000039
-0.000024
0.000021
-0.000005
0.000026
0.000008
0.000021
0.000037
0.000034
-0.000008
0.000045
0.000045
0.000031
0.000045
0.000052
0.000042
0.000037
0.000066
0.000087
0.000105
0.000060
0.000034
0.000018
-0.000016
-0.000037
-0.000060
-0.000055
0.000005
-0.000039
-0.000024
0.000029
0.000010
0.000013
-0.000000
-0.000013
-0.000055
-0.000074
-0.000055
-0.000026
-0.000005
0.000008
0.000026
0.000055
0.000055
0.000081
0.000121
0.000073
0.000058
0.000024
0.000037
0.000050
0.000005
-0.000039
-0.000029
-0.000018
-0.000016
0.000042
0.000079
0.000108
0.000089
0.000087
0.000068
0.000079
0.000034
0.000039
0.000050
0.000039
0.000026
0.000013
-0.000008
0.000045
0.000039
0.000016
0.000024
0.000042
0.000047
0.000071
0.000066
0.000076
0.000052
0.000042
0.000073
0.000063
0.000055
0.000047
0.000055
0.000016
0.000005
-0.000029
-0.000032
-0.000011
-0.000026
-0.000026
0.000024
0.000016
-0.000000
0.000050
0.000060
0.000058
0.000024
0.000029
0.000050
0.000052
0.000042
0.000058
0.000045
0.000031
0.000052
0.000042
0.000076
0.000102
0.000073
0.000068
0.000034
0.000063
0.000052
0.000052
0.000079
0.000079
0.000055
0.000076
0.000071
0.000055
0.000063
0.000037
0.000039
0.000045
0.000021
0.000034
0.000024
0.000081
0.000092
0.000066
0.000105
0.000108
0.000092
0.000089
0.000066
0.000042
0.000042
0.000016
0.000024
0.000042
0.000031
0.000039
0.000055
0.000068
0.000102
0.000073
0.000081
0.000100
0.000084
0.000079
0.000039
0.000045
0.000071
0.000045
0.000016
0.000024
0.000008
0.000026
0.000021
0.000039
0.000034
0.000024
0.000042
0.000047
0.000050
0.000055
0.000031
0.000021
0.000026
-0.000024
-0.000008
0.000016
0.000050
0.000087
0.000058
0.000079
0.000089
0.000076
0.000084
0.000131
0.000115
0.000092
0.000105
0.000102
0.000050
0.000026
0.000016
0.000013
0.000045
0.000039
0.000045
0.000068
0.000089
0.000029
0.000016
0.000063
0.000029
0.000031
0.000066
0.000063
0.000081
0.000081
0.000076
0.000100
0.000084
0.000073
0.000029
-0.000018
-0.000032
-0.000074
-0.000076
-0.000032
-0.000018
-0.000016
0.000050
0.000063
0.000031
0.000045
0.000060
0.000076
0.000050
0.000026
0.000013
0.000045
0.000039
0.000024
0.000024
0.000034
0.000037
0.000060
0.000021
0.000055
0.000039
0.000031
0.000037
0.000039
0.000066
0.000063
0.000079
0.000100
0.000113
0.000123
0.000084
0.000087
0.000031
0.000008
0.000031
-0.000018
0.000039
0.000029
-0.000016
0.000018
0.000010
0.000016
0.000045
0.000055
0.000024
0.000042
0.000042
0.000058
0.000084
0.000076
0.000087
0.000102
0.000079
0.000108
0.000121
0.000123
0.000113
0.000102
0.000060
0.000079
0.000066
0.000052
0.000081
0.000084
0.000058
0.000047
0.000039
0.000039
0.000060
0.000021
0.000005
0.000042
0.000052
0.000076
0.000113
0.000097
0.000110
0.000108
0.000087
0.000131
0.000139
0.000105
0.000108
0.000100
0.000076
0.000084
0.000081
0.000084
0.000076
0.000047
0.000084
0.000058
0.000079
0.000084
0.000105
0.000105
0.000094
0.000068
0.000055
0.000073
0.000066
0.000052
0.000092
0.000087
0.000097
0.000102
0.000126
0.000157
0.000142
0.000108
0.000142
0.000121
0.000123
0.000102
0.000100
0.000105
0.000102
0.000076
0.000073
0.000105
0.000092
0.000063
0.000105
0.000118
0.000071
0.000068
0.000045
0.000026
0.000047
0.000029
0.000058
0.000100
0.000115
0.000081
0.000076
0.000063
0.000063
0.000060
0.000060
0.000081
0.000105
0.000136
0.000144
0.000160
0.000129
0.000113
0.000121
0.000089
0.000084
0.000094
0.000068
0.000084
0.000079
0.000076
0.000055
0.000066
0.000113
0.000094
0.000073
0.000110
0.000115
0.000089
0.000105
0.000129
0.000105
0.000126
0.000076
0.000066
0.000071
0.000063
0.000073
0.000094
0.000105
0.000089
0.000100
0.000092
0.000076
0.000081
0.000058
0.000058
0.000055
0.000045
0.000079
0.000113
0.000060
0.000092
0.000094
0.000060
0.000050
0.000066
0.000081
0.000084
0.000079
0.000055
0.000084
0.000045
0.000039
-0.000000
0.000003
0.000021
0.000029
-0.000003
0.000071
0.000113
0.000071
0.000076
0.000094
0.000094
0.000079
0.000076
0.000079
0.000045
0.000029
0.000052
0.000063
0.000079
0.000105
0.000097
0.000094
0.000102
0.000047
0.000039
0.000087
0.000076
0.000055
0.000034
0.000047
0.000066
0.000047
0.000071
0.000089
0.000123
0.000081
0.000113
0.000110
0.000110
0.000113
0.000102
0.000108
0.000100
0.000100
0.000108
0.000097
0.000121
0.000105
0.000115
0.000108
0.000092
0.000108
0.000063
0.000073
0.000092
0.000058
0.000092
0.000089
0.000110
0.000139
0.000142
0.000139
0.000105
0.000097
0.000052
0.000079
0.000063
0.000058
0.000052
0.000042
0.000039
0.000029
0.000010
0.000031
0.000071
0.000071
0.000089
0.000115
0.000105
0.000087
0.000084
0.000068
0.000071
0.000071
0.000063
0.000079
0.000094
0.000084
0.000087
0.000089
0.000113
0.000105
0.000060
0.000094
0.000094
0.000071
0.000047
0.000047
0.000034
0.000031
0.000024
0.000031
0.000031
0.000050
0.000052
0.000068
0.000087
0.000092
0.000097
0.000100
0.000113
0.000089
0.000092
0.000102
0.000108
0.000094
0.000087
0.000115
0.000097
0.000108
0.000102
0.000066
0.000089
0.000105
0.000105
0.000123
0.000100
0.000097
0.000115
0.000089
0.000092
0.000097
0.000092
0.000092
0.000084
0.000105
0.000105
0.000113
0.000131
0.000136
0.000155
0.000092
0.000115
0.000121
0.000097
0.000108
0.000115
0.000108
0.000129
0.000110
0.000097
0.000105
0.000089
0.000055
0.000087
0.000068
0.000039
0.000052
0.000029
0.000037
0.000034
0.000045
0.000055
0.000068
0.000087
0.000105
0.000118
0.000113
0.000110
0.000110
0.000105
0.000110
0.000123
0.000149
0.000155
0.000160
0.000126
0.000134
0.000144
0.000126
0.000113
0.000087
0.000139
0.000097
0.000071
0.000079
0.000089
0.000079
0.000068
0.000066
0.000079
0.000047
0.000029
0.000073
0.000084
0.000079
0.000076
0.000118
0.000129
0.000142
0.000094
0.000118
0.000113
0.000060
0.000055
0.000079
0.000076
0.000042
0.000076
0.000089
0.000079
0.000094
0.000079
0.000097
0.000105
0.000068
0.000052
0.000058
0.000071
0.000066
0.000089
0.000129
0.000102
0.000110
0.000089
0.000123
0.000134
0.000126
0.000123
0.000089
0.000089
0.000105
0.000084
0.000073
0.000063
0.000063
0.000071
0.000073
0.000081
0.000087
0.000108
0.000087
0.000136
0.000147
0.000165
0.000144
0.000152
0.000157
0.000126
0.000102
0.000113
0.000092
0.000084
0.000089
0.000050
0.000055
0.000047
0.000018
0.000071
0.000063
0.000076
0.000034
0.000055
0.000068
0.000050
0.000042
0.000052
0.000073
0.000108
0.000105
0.000144
0.000123
0.000123
0.000134
0.000155
0.000134
0.000097
0.000105
0.000115
0.000115
0.000136
0.000131
0.000149
0.000139
0.000097
0.000084
0.000108
0.000105
0.000073
0.000118
0.000165
0.000168
0.000157
0.000176
0.000170
0.000176
0.000142
0.000129
0.000113
0.000100
0.000050
0.000060
0.000102
0.000073
0.000039
0.000068
0.000081
0.000058
0.000081
0.000110
0.000131
0.000115
0.000079
0.000089
0.000076
0.000071
0.000076
0.000076
0.000097
0.000102
0.000084
0.000081
0.000089
0.000087
0.000068
0.000102
0.000076
0.000060
0.000076
0.000066
0.000102
0.000100
0.000089
0.000131
0.000110
0.000110
0.000121
0.000113
0.000129
0.000121
0.000089
0.000089
0.000110
0.000102
0.000087
0.000105
0.000092
0.000081
0.000092
0.000081
0.000084
0.000089
0.000081
0.000123
0.000108
0.000142
0.000149
0.000131
0.000134
0.000155
0.000129
0.000134
0.000105
0.000110
0.000089
0.000079
0.000102
0.000102
0.000089
0.000076
0.000121
0.000118
0.000108
0.000123
0.000139
0.000134
0.000129
0.000134
0.000121
0.000136
0.000097
0.000071
0.000092
0.000063
0.000079
0.000060
0.000087
0.000102
0.000081
0.000045
0.000042
0.000042
0.000055
0.000026
0.000079
0.000079
0.000087
0.000100
0.000108
0.000123
0.000123
0.000089
0.000118
0.000100
0.000052
0.000073
0.000079
0.000071
0.000055
0.000084
0.000097
0.000102
0.000129
0.000134
0.000134
0.000142
0.000136
0.000136
0.000131
0.000176
0.000136
0.000121
0.000165
0.000102
0.000126
0.000115
0.000105
0.000100
0.000110
0.000084
0.000102
0.000071
0.000071
0.000108
0.000092
0.000108
0.000094
0.000071
0.000081
0.000050
0.000089
0.000073
0.000097
0.000055
0.000052
0.000076
0.000081
0.000105
0.000123
0.000139
0.000163
0.000149
0.000149
0.000142
0.000129
0.000092
0.000110
0.000102
0.000123
0.000102
0.000092
0.000052
0.000034
0.000060
0.000071
0.000063
0.000084
0.000123
0.000176
0.000108
0.000155
0.000113
0.000105
0.000113
0.000089
0.000081
0.000092
0.000063
0.000076
0.000087
0.000066
0.000050
0.000092
0.000102
0.000092
0.000123
0.000121
0.000110
0.000139
0.000121
0.000139
0.000115
0.000100
0.000123
0.000121
0.000113
0.000126
0.000131
0.000108
0.000118
0.000105
0.000081
0.000115
0.000108
0.000092
0.000071
0.000105
0.000076
0.000087
0.000087
0.000105
0.000113
0.000131
0.000147
0.000097
0.000108
0.000113
0.000126
0.000147
0.000178
0.000178
0.000126
0.000152
0.000105
0.000084
0.000092
0.000076
0.000084
0.000076
0.000060
0.000063
0.000073
0.000102
0.000084
0.000094
0.000055
0.000039
0.000060
0.000094
0.000113
0.000131
0.000139
0.000131
0.000144
0.000113
0.000121
0.000118
0.000087
0.000079
0.000052
0.000037
0.000071
0.000068
0.000073
0.000110
0.000084
0.000108
0.000108
0.000139
0.000173
0.000176
0.000191
0.000184
0.000152
0.000147
0.000152
0.000105
0.000105
0.000126
0.000110
0.000121
0.000113
0.000087
0.000102
0.000097
0.000097
0.000118
0.000118
0.000131
0.000155
0.000123
0.000131
0.000136
0.000157
0.000129
0.000094
0.000123
0.000136
0.000118
0.000108
0.000105
0.000110
0.000105
0.000102
0.000110
0.000105
0.000113
0.000110
0.000129
0.000123
0.000129
0.000113
0.000139
0.000126
0.000123
0.000173
0.000160
0.000163
0.000149
0.000139
0.000170
0.000152
0.000144
0.000186
0.000149
0.000160
0.000134
0.000152
0.000118
0.000134
0.000147
0.000066
0.000123
0.000097
0.000076
0.000100
0.000118
0.000123
0.000113
0.000144
0.000113
0.000152
0.000152
0.000118
0.000157
0.000131
0.000139
0.000121
0.000129
0.000129
0.000092
0.000131
0.000129
0.000121
0.000121
0.000118
0.000149
0.000155
0.000149
0.000136
0.000142
0.000136
0.000113
0.000123
0.000129
0.000123
0.000097
0.000121
0.000118
0.000110
0.000076
0.000092
0.000105
0.000105
0.000113
0.000118
0.000118
0.000126
0.000105
0.000097
0.000123
0.000121
0.000121
0.000152
0.000142
0.000126
0.000123
0.000155
0.000155
0.000131
0.000157
0.000165
0.000170
0.000131
0.000136
0.000115
0.000118
0.000113
0.000066
0.000084
0.000084
0.000047
0.000052
0.000087
0.000100
0.000094
0.000087
0.000121
0.000136
0.000123
0.000134
0.000129
0.000152
0.000129
0.000160
0.000108
0.000118
0.000115
0.000110
0.000126
0.000110
0.000087
0.000105
0.000100
0.000092
0.000092
0.000102
0.000118
0.000149
0.000144
0.000131
0.000170
0.000173
0.000149
0.000165
0.000160
0.000165
0.000142
0.000134
0.000121
0.000123
0.000126
0.000123
0.000142
0.000134
0.000142
0.000149
0.000110
0.000092
0.000089
0.000073
0.000076
0.000089
0.000092
0.000097
0.000092
0.000100
0.000142
0.000123
0.000152
0.000163
0.000155
0.000147
0.000147
0.000144
0.000126
0.000113
0.000094
0.000087
0.000094
0.000058
0.000066
0.000134
0.000108
0.000115
0.000136
0.000129
0.000142
0.000168
0.000165
0.000160
0.000126
0.000129
0.000144
0.000176
0.000152
0.000115
0.000118
0.000094
0.000100
0.000110
0.000144
0.000131
0.000105
0.000129
0.000131
0.000134
0.000129
0.000084
0.000105
0.000115
0.000115
0.000113
0.000149
0.000149
0.000136
0.000152
0.000168
0.000139
0.000147
0.000126
0.000110
0.000100
0.000073
0.000089
0.000100
0.000068
0.000105
0.000076
0.000068
0.000081
0.000092
0.000105
0.000110
0.000129
0.000126
0.000123
0.000136
0.000113
0.000105
0.000084
0.000079
0.000097
0.000110
0.000123
0.000089
0.000084
0.000073
0.000089
0.000050
0.000068
0.000063
0.000037
0.000042
0.000055
0.000068
0.000045
0.000047
0.000066
0.000052
0.000071
0.000092
0.000084
0.000105
0.000139
0.000108
0.000115
0.000144
0.000113
0.000121
0.000126
0.000134
0.000157
0.000152
0.000123
0.000121
0.000131
0.000115
0.000139
0.000163
0.000155
0.000157
0.000149
0.000184
0.000157
0.000126
0.000139
0.000136
0.000147
0.000113
0.000134
0.000110
0.000105
0.000118
0.000092
0.000097
0.000058
0.000063
0.000092
0.000097
0.000066
0.000081
0.000097
0.000115
0.000118
0.000089
0.000139
0.000134
0.000131
0.000134
0.000136
0.000118
0.000105
0.000123
0.000110
0.000100
0.000108
0.000052
0.000068
0.000073
0.000087
0.000089
0.000113
0.000121
0.000129
0.000108
0.000134
0.000110
0.000105
0.000097
0.000084
0.000066
0.000045
0.000021
0.000034
0.000060
0.000076
0.000068
0.000089
0.000129
0.000092
0.000110
0.000110
0.000092
0.000123
0.000113
0.000129
0.000131
0.000144
0.000105
0.000126
0.000144
0.000129
0.000163
0.000163
0.000163
0.000139
0.000113
0.000134
0.000102
0.000113
0.000081
0.000113
0.000123
0.000100
0.000079
0.000094
0.000129
0.000110
0.000094
0.000118
0.000144
0.000149
0.000147
0.000142
0.000126
0.000163
0.000149
0.000142
0.000165
0.000126
0.000131
0.000144
0.000144
0.000126
0.000131
0.000097
0.000087
0.000100
0.000092
0.000139
0.000139
0.000126
0.000123
0.000144
0.000173
0.000168
0.000165
0.000184
0.000181
0.000186
0.000186
0.000160
0.000152
0.000139
0.000110
0.000118
0.000118
0.000115
0.000142
0.000139
0.000134
0.000152
0.000134
0.000155
0.000155
0.000144
0.000155
0.000186
0.000155
0.000157
0.000168
0.000170
0.000152
0.000149
0.000131
0.000134
0.000144
0.000152
0.000160
0.000186
0.000136
0.000108
0.000115
0.000121
0.000102
0.000084
0.000063
0.000100
0.000092
0.000071
0.000081
0.000071
0.000097
0.000123
0.000100
0.000139
0.000160
0.000134
0.000131
0.000129
0.000084
0.000087
0.000089
0.000092
0.000071
0.000084
0.000087
0.000047
0.000115
0.000081
0.000087
0.000123
0.000113
0.000110
0.000102
0.000129
0.000115
0.000105
0.000081
0.000105
0.000097
0.000108
0.000097
0.000142
0.000155
0.000097
0.000149
0.000168
0.000129
0.000139
0.000149
0.000129
0.000129
0.000121
0.000139
0.000147
0.000144
0.000134
0.000131
0.000157
0.000152
0.000149
0.000181
0.000207
0.000181
0.000176
0.000170
0.000205
0.000189
0.000168
0.000173
0.000199
0.000165
0.000157
0.000136
0.000157
0.000152
0.000136
0.000157
0.000147
0.000123
0.000100
0.000100
0.000102
0.000092
0.000097
0.000129
0.000163
0.000160
0.000131
0.000136
0.000131
0.000092
0.000126
0.000102
0.000118
0.000142
0.000136
0.000102
0.000136
0.000108
0.000100
0.000115
0.000118
0.000118
0.000102
0.000087
0.000108
0.000102
0.000108
0.000134
0.000139
0.000139
0.000170
0.000178
0.000189
0.000176
0.000189
0.000189
0.000189
0.000178
0.000173
0.000139
0.000142
0.000136
0.000108
0.000155
0.000142
0.000170
0.000173
0.000173
0.000165
0.000152
0.000165
0.000149
0.000194
0.000191
0.000157
0.000155
0.000152
0.000147
0.000155
0.000113
0.000108
0.000094
0.000115
0.000066
0.000108
0.000144
0.000134
0.000102
0.000092
0.000092
0.000092
0.000089
0.000118
0.000147
0.000102
0.000110
0.000129
0.000110
0.000092
0.000115
0.000147
0.000157
0.000142
0.000126
0.000152
0.000152
0.000152
0.000170
0.000194
0.000149
0.000134
0.000144
0.000191
0.000197
0.000144
0.000157
0.000199
0.000155
0.000134
0.000178
0.000184
0.000147
0.000123
0.000134
0.000155
0.000142
0.000115
0.000118
0.000139
0.000115
0.000058
0.000063
0.000092
0.000092
0.000060
0.000089
0.000131
0.000108
0.000118
0.000123
0.000123
0.000121
0.000134
0.000126
0.000144
0.000129
0.000110
0.000144
0.000147
0.000155
0.000160
0.000178
0.000155
0.000168
0.000173
0.000168
0.000191
0.000147
0.000144
0.000152
0.000191
0.000168
0.000149
0.000155
0.000147
0.000100
0.000113
0.000100
0.000100
0.000110
0.000126
0.000113
0.000139
0.000123
0.000126
0.000123
0.000142
0.000126
0.000142
0.000144
0.000126
0.000176
0.000123
0.000136
0.000170
0.000160
0.000157
0.000152
0.000155
0.000142
0.000155
0.000129
0.000134
0.000152
0.000129
0.000115
0.000144
0.000129
0.000121
0.000105
0.000092
0.000113
0.000102
0.000102
0.000123
0.000136
0.000110
0.000118
0.000123
0.000136
0.000126
0.000134
0.000144
0.000136
0.000134
0.000149
0.000155
0.000163
0.000144
0.000121
0.000126
0.000134
0.000142
0.000121
0.000155
0.000144
0.000097
0.000100
0.000113
0.000118
0.000105
0.000097
0.000144
0.000144
0.000123
0.000105
0.000102
0.000110
0.000097
0.000142
0.000152
0.000168
0.000139
0.000142
0.000160
0.000168
0.000168
0.000173
0.000178
0.000186
0.000149
0.000144
0.000144
0.000092
0.000073
0.000079
0.000118
0.000105
0.000108
0.000144
0.000149
0.000149
0.000144
0.000149
0.000165
0.000129
0.000092
0.000105
0.000100
0.000092
0.000097
0.000108
0.000121
0.000058
0.000047
0.000029
0.000055
0.000058
0.000079
0.000129
0.000115
0.000108
0.000136
0.000131
0.000149
0.000152
0.000113
0.000142
0.000168
0.000123
0.000134
0.000129
0.000108
0.000147
0.000121
0.000121
0.000113
0.000121
0.000123
0.000129
0.000121
0.000136
0.000136
0.000097
0.000121
0.000129
0.000118
0.000131
0.000160
0.000155
0.000160
0.000194
0.000165
0.000160
0.000157
0.000157
0.000152
0.000152
0.000131
0.000115
0.000134
0.000118
0.000105
0.000102
0.000123
0.000126
0.000126
0.000121
0.000142
0.000113
0.000131
0.000152
0.000155
0.000163
0.000160
0.000163
0.000123
0.000113
0.000123
0.000079
0.000071
0.000094
0.000066
0.000045
0.000060
0.000071
0.000058
0.000055
0.000050
0.000094
0.000084
0.000081
0.000118
0.000142
0.000115
0.000144
0.000144
0.000152
0.000165
0.000152
0.000184
0.000170
0.000152
0.000147
0.000163
0.000136
0.000142
0.000149
0.000152
0.000142
0.000131
0.000126
0.000155
0.000168
0.000152
0.000163
0.000189
0.000181
0.000168
0.000191
0.000207
0.000189
0.000163
0.000157
0.000152
0.000163
0.000115
0.000149
0.000178
0.000139
0.000136
0.000144
0.000142
0.000118
0.000113
0.000129
0.000173
0.000134
0.000121
0.000142
0.000144
0.000149
0.000113
0.000160
0.000139
0.000136
0.000136
0.000142
0.000165
0.000165
0.000149
0.000165
0.000142
0.000126
0.000102
0.000126
0.000126
0.000118
0.000089
0.000144
0.000160
0.000155
0.000170
0.000191
0.000197
0.000194
0.000173
0.000181
0.000181
0.000168
0.000113
0.000121
0.000129
0.000129
0.000144
0.000149
0.000152
0.000176
0.000160
0.000181
0.000168
0.000194
0.000139
0.000142
0.000152
0.000149
0.000155
0.000157
0.000184
0.000170
0.000142
0.000142
0.000108
0.000081
0.000063
0.000084
0.000118
0.000110
0.000115
0.000108
0.000118
0.000118
0.000115
0.000136
0.000108
0.000126
0.000136
0.000126
0.000129
0.000113
0.000092
0.000092
0.000121
0.000136
0.000118
0.000131
0.000115
0.000121
0.000139
0.000105
0.000129
0.000129
0.000113
0.000121
0.000139
0.000134
0.000118
0.000157
0.000165
0.000168
0.000134
0.000152
0.000163
0.000149
0.000184
0.000189
0.000181
0.000176
0.000168
0.000157
0.000176
0.000142
0.000121
0.000136
0.000139
0.000105
0.000123
0.000131
0.000131
0.000142
0.000147
0.000165
0.000186
0.000147
0.000155
0.000189
0.000178
0.000178
0.000181
0.000157
0.000181
0.000160
0.000134
0.000163
0.000176
0.000149
0.000136
0.000155
0.000163
0.000163
0.000126
0.000123
0.000131
0.000108
0.000136
0.000118
0.000149
0.000136
0.000149
0.000160
0.000165
0.000152
0.000136
0.000147
0.000149
0.000108
0.000113
0.000105
0.000110
0.000102
0.000089
0.000073
0.000115
0.000118
0.000134
0.000129
0.000123
0.000160
0.000126
0.000097
0.000147
0.000129
0.000134
0.000147
0.000157
0.000160
0.000157
0.000178
0.000186
0.000181
0.000160
0.000163
0.000155
0.000121
0.000139
0.000139
0.000160
0.000139
0.000126
0.000147
0.000157
0.000165
0.000149
0.000134
0.000184
0.000163
0.000139
0.000155
0.000149
0.000152
0.000134
0.000144
0.000155
0.000136
0.000152
0.000113
0.000102
0.000105
0.000063
0.000102
0.000134
0.000129
0.000129
0.000139
0.000168
0.000152
0.000149
0.000149
0.000176
0.000157
0.000152
0.000170
0.000199
0.000155
0.000160
0.000170
0.000147
0.000131
0.000134
0.000144
0.000170
0.000136
0.000136
0.000155
0.000144
0.000115
0.000084
0.000097
0.000139
0.000147
0.000144
0.000176
0.000205
0.000191
0.000186
0.000199
0.000197
0.000165
0.000160
0.000152
0.000186
0.000136
0.000149
0.000181
0.000165
0.000163
0.000155
0.000102
0.000126
0.000121
0.000110
0.000100
0.000142
0.000144
0.000134
0.000157
0.000142
0.000155
0.000134
0.000144
0.000149
0.000163
0.000178
0.000184
0.000160
0.000160
0.000157
0.000144
0.000160
0.000173
0.000155
0.000173
0.000194
0.000160
0.000170
0.000168
0.000163
0.000176
0.000178
0.000186
0.000197
0.000215
0.000197
0.000157
0.000184
0.000155
0.000136
0.000157
0.000147
0.000129
0.000142
0.000126
0.000149
0.000142
0.000110
0.000149
0.000152
0.000155
0.000126
0.000155
0.000157
0.000168
0.000131
0.000152
0.000197
0.000149
0.000139
0.000149
0.000155
0.000155
0.000131
0.000144
0.000168
0.000152
0.000123
0.000144
0.000168
0.000126
0.000118
0.000110
0.000160
0.000129
0.000102
0.000118
0.000136
0.000126
0.000139
0.000152
0.000155
0.000144
0.000155
0.000144
0.000173
0.000142
0.000147
0.000142
0.000155
0.000163
0.000144
0.000142
0.000178
0.000152
0.000163
0.000157
0.000155
0.000173
0.000139
0.000155
0.000139
0.000126
0.000152
0.000149
0.000178
0.000173
0.000155
0.000160
0.000178
0.000155
0.000134
0.000113
0.000134
0.000144
0.000129
0.000155
0.000160
0.000149
0.000152
0.000160
0.000163
0.000181
0.000165
0.000152
0.000168
0.000184
0.000139
0.000139
0.000136
0.000100
0.000123
0.000123
0.000126
0.000121
0.000129
0.000129
0.000139
0.000157
0.000149
0.000160
0.000139
0.000155
0.000123
0.000139
0.000155
0.000157
0.000131
0.000134
0.000144
0.000123
0.000149
0.000155
0.000144
0.000168
0.000131
0.000152
0.000142
0.000168
0.000157
0.000157
0.000178
0.000165
0.000176
0.000176
0.000184
0.000207
0.000163
0.000186
0.000194
0.000189
0.000194
0.000197
0.000191
0.000170
0.000155
0.000170
0.000155
0.000134
0.000157
0.000165
0.000160
0.000147
0.000142
0.000115
0.000163
0.000165
0.000134
0.000163
0.000139
0.000142
0.000186
0.000157
0.000170
0.000178
0.000173
0.000160
0.000178
0.000181
0.000136
0.000152
0.000144
0.000152
0.000147
0.000131
0.000178
0.000165
0.000144
0.000108
0.000134
0.000126
0.000102
0.000131
0.000142
0.000160
0.000131
0.000139
0.000168
0.000163
0.000160
0.000178
0.000149
0.000184
0.000181
0.000178
0.000184
0.000181
0.000160
0.000176
0.000160
0.000155
0.000131
0.000123
0.000157
0.000144
0.000144
0.000136
0.000149
0.000147
0.000118
0.000149
0.000147
0.000131
0.000155
0.000170
0.000160
0.000189
0.000165
0.000170
0.000178
0.000184
0.000157
0.000165
0.000134
0.000147
0.000131
0.000113
0.000155
0.000131
0.000129
0.000163
0.000189
0.000181
0.000194
0.000181
0.000194
0.000207
0.000170
0.000186
0.000160
0.000152
0.000139
0.000155
0.000176
0.000155
0.000173
0.000157
0.000155
0.000134
0.000115
0.000126
0.000089
0.000102
0.000123
0.000126
0.000142
0.000165
0.000144
0.000129
0.000163
0.000142
0.000134
0.000178
0.000176
0.000194
0.000173
0.000131
0.000176
0.000163
0.000160
0.000144
0.000142
0.000123
0.000139
0.000123
0.000142
0.000157
0.000155
0.000173
0.000199
0.000168
0.000170
0.000142
0.000160
0.000173
0.000155
0.000155
0.000163
0.000178
0.000149
0.000202
0.000181
0.000186
0.000176
0.000160
0.000163
0.000173
0.000149
0.000163
0.000149
0.000121
0.000126
0.000105
0.000121
0.000126
0.000129
0.000123
0.000147
0.000139
0.000144
0.000155
0.000142
0.000163
0.000184
0.000178
0.000165
0.000160
0.000152
0.000163
0.000163
0.000157
0.000149
0.000139
0.000176
0.000142
0.000157
0.000155
0.000152
0.000155
0.000134
0.000149
0.000144
0.000134
0.000155
0.000144
0.000139
0.000160
0.000121
0.000113
0.000157
0.000131
0.000157
0.000160
0.000176
0.000149
0.000157
0.000165
0.000155
0.000163
0.000136
0.000165
0.000186
0.000163
0.000168
0.000176
0.000170
0.000189
0.000157
0.000170
0.000197
0.000165
0.000184
0.000212
0.000191
0.000155
0.000149
0.000149
0.000129
0.000147
0.000136
0.000170
0.000178
0.000144
0.000149
0.000160
0.000176
0.000189
0.000184
0.000149
0.000123
0.000110
0.000142
0.000136
0.000118
0.000134
0.000147
0.000152
0.000157
0.000157
0.000163
0.000170
0.000134
0.000144
0.000136
0.000129
0.000110
0.000118
0.000129
0.000157
0.000136
0.000131
0.000155
0.000168
0.000170
0.000176
0.000176
0.000139
0.000168
0.000184
0.000136
0.000118
0.000113
0.000129
0.000126
0.000108
0.000142
0.000147
0.000184
0.000149
0.000199
0.000160
0.000142
0.000168
0.000163
0.000199
0.000165
0.000168
0.000186
0.000163
0.000155
0.000163
0.000173
0.000168
0.000155
0.000131
0.000173
0.000173
0.000170
0.000149
0.000178
0.000152
0.000129
0.000160
0.000136
0.000118
0.000110
0.000123
0.000189
0.000165
0.000152
0.000189
0.000191
0.000165
0.000168
0.000149
0.000170
0.000157
0.000126
0.000129
0.000170
0.000129
0.000100
0.000134
0.000142
0.000126
0.000131
0.000126
0.000157
0.000144
0.000134
0.000157
0.000157
0.000136
0.000139
0.000165
0.000134
0.000123
0.000102
0.000118
0.000123
0.000126
0.000142
0.000144
0.000142
0.000113
0.000126
0.000129
0.000139
0.000129
0.000129
0.000152
0.000142
0.000126
0.000131
0.000149
0.000147
0.000155
0.000189
0.000168
0.000186
0.000178
0.000170
0.000173
0.000149
0.000149
0.000165
0.000168
0.000173
0.000131
0.000100
0.000108
0.000144
0.000113
0.000134
0.000163
0.000149
0.000155
0.000149
0.000176
0.000186
0.000165
0.000165
0.000163
0.000168
0.000157
0.000142
0.000144
0.000123
0.000129
0.000108
0.000089
0.000097
0.000084
0.000118
0.000123
0.000131
0.000160
0.000181
0.000178
0.000184
0.000197
0.000181
0.000205
0.000197
0.000197
0.000191
0.000189
0.000210
0.000194
0.000184
0.000170
0.000202
0.000168
0.000170
0.000186
0.000160
0.000170
0.000115
0.000139
0.000129
0.000126
0.000113
0.000121
0.000152
0.000142
0.000173
0.000131
0.000165
0.000165
0.000134
0.000194
0.000194
0.000173
0.000170
0.000178
0.000160
0.000184
0.000155
0.000131
0.000149
0.000149
0.000147
0.000157
0.000184
0.000160
0.000155
0.000160
0.000173
0.000207
0.000160
0.000157
0.000181
0.000170
0.000168
0.000168
0.000170
0.000168
0.000155
0.000129
0.000152
0.000144
0.000108
0.000147
0.000152
0.000126
0.000131
0.000142
0.000160
0.000160
0.000123
0.000131
0.000131
0.000087
0.000110
0.000142
0.000136
0.000173
0.000165
0.000160
0.000189
0.000197
0.000157
0.000136
0.000160
0.000152
0.000113
0.000155
0.000152
0.000147
0.000147
0.000139
0.000155
0.000144
0.000144
0.000181
0.000189
0.000173
0.000178
0.000155
0.000165
0.000157
0.000144
0.000184
0.000176
0.000136
0.000134
0.000163
0.000181
0.000163
0.000149
0.000176
0.000199
0.000176
0.000126
0.000149
0.000165
0.000149
0.000168
0.000160
0.000118
0.000147
0.000089
0.000123
0.000147
0.000123
0.000102
0.000134
0.000134
0.000134
0.000129
0.000110
0.000136
0.000147
0.000121
0.000160
0.000165
0.000142
0.000155
0.000136
0.000131
0.000149
0.000118
0.000118
0.000147
0.000144
0.000163
0.000155
0.000157
0.000168
0.000170
0.000186
0.000168
0.000189
0.000160
0.000178
0.000165
0.000178
0.000178
0.000155
0.000147
0.000186
0.000165
0.000155
0.000155
0.000170
0.000173
0.000152
0.000186
0.000186
0.000173
0.000160
0.000165
0.000165
0.000152
0.000139
0.000147
0.000110
0.000149
0.000139
0.000121
0.000129
0.000134
0.000149
0.000144
0.000147
0.000142
0.000155
0.000170
0.000155
0.000168
0.000186
0.000184
0.000189
0.000189
0.000181
0.000189
0.000189
0.000176
0.000168
0.000165
0.000176
0.000142
0.000134
0.000152
0.000126
0.000118
0.000149
0.000155
0.000147
0.000160
0.000152
0.000144
0.000163
0.000105
0.000160
0.000186
0.000181
0.000173
0.000173
0.000184
0.000181
0.000149
0.000139
0.000139
0.000134
0.000113
0.000121
0.000087
0.000094
0.000097
0.000097
0.000144
0.000149
0.000147
0.000160
0.000197
0.000212
0.000205
0.000194
0.000207
0.000220
0.000212
0.000191
0.000197
0.000155
0.000118
0.000149
0.000123
0.000142
0.000142
0.000129
0.000136
0.000170
0.000126
0.000129
0.000170
0.000144
0.000168
0.000178
0.000176
0.000194
0.000149
0.000147
0.000197
0.000136
0.000160
0.000165
0.000165
0.000136
0.000126
0.000123
0.000147
0.000136
0.000121
0.000142
0.000136
0.000105
0.000160
0.000149
0.000170
0.000186
0.000191
0.000191
0.000176
0.000160
0.000165
0.000207
0.000202
0.000178
0.000176
0.000194
0.000165
0.000181
0.000134
0.000157
0.000168
0.000144
0.000152
0.000147
0.000136
0.000170
0.000160
0.000160
0.000157
0.000152
0.000144
0.000165
0.000165
0.000126
0.000168
0.000165
0.000165
0.000197
0.000170
0.000173
0.000186
0.000173
0.000176
0.000157
0.000131
0.000173
0.000126
0.000131
0.000178
0.000147
0.000152
0.000170
0.000173
0.000181
0.000191
0.000184
0.000176
0.000210
0.000176
0.000152
0.000176
0.000181
0.000189
0.000191
0.000170
0.000181
0.000147
0.000129
0.000157
0.000152
0.000121
0.000126
0.000113
0.000121
0.000129
0.000142
0.000136
0.000168
0.000149
0.000163
0.000181
0.000199
0.000194
0.000181
0.000205
0.000202
0.000186
0.000176
0.000168
0.000168
0.000142
0.000147
0.000160
0.000139
0.000139
0.000144
0.000149
0.000134
0.000136
0.000139
0.000202
0.000186
0.000163
0.000197
0.000184
0.000212
0.000199
0.000186
0.000202
0.000170
0.000165
0.000194
0.000160
0.000110
0.000147
0.000144
0.000134
0.000176
0.000142
0.000152
0.000197
0.000149
0.000160
0.000178
0.000178
0.000163
0.000147
0.000163
0.000197
0.000189
0.000189
0.000181
0.000197
0.000189
0.000197
0.000189
0.000155
0.000139
0.000131
0.000118
0.000160
0.000136
0.000155
0.000189
0.000186
0.000139
0.000165
0.000163
0.000186
0.000186
0.000147
0.000165
0.000152
0.000144
0.000149
0.000139
0.000131
0.000131
0.000113
0.000118
0.000157
0.000131
0.000144
0.000157
0.000168
0.000168
0.000165
0.000165
0.000199
0.000181
0.000194
0.000181
0.000165
0.000181
t0(sec) = 0.000000E+0
dt(sec) = 4.000000E-10
F2:INSP "
DESCRIPTOR_NAME    : WAVEDESC           
TEMPLATE_NAME      : LECROY_2_3         
COMM_TYPE          : word               
COMM_ORDER         : HIFIRST            
WAVE_DESCRIPTOR    : 346                
USER_TEXT          : 0                  
RES_DESC1          : 0                  
TRIGTIME_ARRAY     : 0                  
RIS_TIME_ARRAY     : 0                  
RES_ARRAY1         : 0                  
WAVE_ARRAY_1       : 10002              
WAVE_ARRAY_2       : 0                  
RES_ARRAY2         : 0                  
RES_ARRAY3         : 0                  
INSTRUMENT_NAME    : LECROYHDO6104      
INSTRUMENT_NUMBER  : 6308               
TRACE_LABEL        :                    
RESERVED1          : 5001               
RESERVED2          : 0                  
WAVE_ARRAY_COUNT   : 5001               
PNTS_PER_SCREEN    : 5000               
FIRST_VALID_PNT    : 0                  
LAST_VALID_PNT     : 5000               
FIRST_POINT        : 0                  
SPARSING_FACTOR    : 1                  
SEGMENT_INDEX      : 0                  
SUBARRAY_COUNT     : 1                  
SWEEPS_PER_ACQ     : 200                
POINTS_PER_PAIR    : 0                  
PAIR_OFFSET        : 0                  
VERTICAL_GAIN      : 2.6238e-006        
VERTICAL_OFFSET    : 4.2500e-002        
MAX_VALUE          : 3.2512e+004        
MIN_VALUE          : -2.5373e+004       
NOMINAL_BITS       : 16                 
NOM_SUBARRAY_COUNT : 1                  
HORIZ_INTERVAL     : 4.0000e-010        
HORIZ_OFFSET       : -2.00000000e-007   
PIXEL_OFFSET       : -2.00000000e-007   
VERTUNIT           : Unit Name = V
HORUNIT            : Unit Name = S
HORIZ_UNCERTAINTY  : 1.0000e-012        
TRIGGER_TIME       : Date = APR 17, 2024, Time = 19:30:19.806297508
ACQ_DURATION       : 1.0064e+001        
RECORD_TYPE        : single_sweep       
PROCESSING_DONE    : no_processing      
RESERVED5          : 0                  
RIS_SWEEPS         : 1                  
TIMEBASE           : 200_ns/div         
VERT_COUPLING      : DC_50_Ohms         
PROBE_ATT          : 1.0000e+000        
FIXED_VERT_GAIN    : 20_mV/div          
BANDWIDTH_LIMIT    : off                
VERTICAL_VERNIER   : 1.0500e+000        
ACQ_VERT_OFFSET    : 0.0000e+000        
WAVE_SOURCE        : UNKNOWN            
"
0.001398
0.001383
0.001388
0.001375
0.001367
0.001380
0.001383
0.001375
0.001383
0.001388
0.001401
0.001398
0.001396
0.001393
0.001404
0.001385
0.001396
0.001370
0.001401
0.001383
0.001391
0.001377
0.001409
0.001377
0.001372
0.001391
0.001409
0.001393
0.001383
0.001391
0.001391
0.001388
0.001396
0.001370
0.001393
0.001396
0.001391
0.001409
0.001409
0.001401
0.001380
0.001388
0.001380
0.001377
0.001388
0.001375
0.001388
0.001377
0.001414
0.001398
0.001398
0.001388
0.001383
0.001391
0.001393
0.001380
0.001377
0.001364
0.001393
0.001388
0.001377
0.001375
0.001362
0.001385
0.001367
0.001370
0.001391
0.001393
0.001385
0.001393
0.001393
0.001388
0.001370
0.001370
0.001388
0.001370
0.001335
0.001396
0.001377
0.001396
0.001401
0.001362
0.001406
0.001375
0.001359
0.001375
0.001385
0.001393
0.001385
0.001398
0.001406
0.001385
0.001404
0.001372
0.001385
0.001375
0.001370
0.001414
0.001385
0.001409
0.001354
0.001398
0.001388
0.001385
0.001375
0.001391
0.001430
0.001391
0.001412
0.001419
0.001427
0.001404
0.001385
0.001417
0.001396
0.001391
0.001391
0.001359
0.001409
0.001380
0.001338
0.001375
0.001375
0.001391
0.001391
0.001391
0.001398
0.001409
0.001375
0.001414
0.001398
0.001414
0.001409
0.001414
0.001414
0.001404
0.001377
0.001401
0.001417
0.001404
0.001391
0.001383
0.001430
0.001393
0.001377
0.001401
0.001370
0.001385
0.001367
0.001372
0.001404
0.001401
0.001396
0.001377
0.001409
0.001412
0.001398
0.001406
0.001393
0.001412
0.001401
0.001404
0.001417
0.001391
0.001383
0.001385
0.001391
0.001388
0.001380
0.001396
0.001385
0.001391
0.001380
0.001383
0.001406
0.001385
0.001375
0.001380
0.001398
0.001393
0.001385
0.001388
0.001409
0.001388
0.001398
0.001372
0.001396
0.001396
0.001396
0.001406
0.001388
0.001401
0.001398
0.001372
0.001435
0.001383
0.001393
0.001427
0.001414
0.001401
0.001404
0.001406
0.001419
0.001412
0.001401
0.001406
0.001414
0.001372
0.001388
0.001383
0.001393
0.001383
0.001404
0.001401
0.001412
0.001406
0.001356
0.001375
0.001385
0.001385
0.001372
0.001380
0.001388
0.001380
0.001380
0.001367
0.001404
0.001372
0.001383
0.001412
0.001406
0.001393
0.001401
0.001372
0.001393
0.001385
0.001391
0.001367
0.001383
0.001385
0.001364
0.001370
0.001409
0.001396
0.001377
0.001391
0.001404
0.001383
0.001372
0.001396
0.001380
0.001383
0.001391
0.001388
0.001422
0.001412
0.001388
0.001398
0.001398
0.001393
0.001388
0.001375
0.001401
0.001388
0.001385
0.001401
0.001401
0.001372
0.001351
0.001367
0.001385
0.001385
0.001377
0.001391
0.001377
0.001372
0.001391
0.001370
0.001388
0.001383
0.001398
0.001414
0.001417
0.001391
0.001377
0.001375
0.001393
0.001364
0.001380
0.001372
0.001359
0.001370
0.001385
0.001396
0.001375
0.001388
0.001396
0.001385
0.001393
0.001377
0.001401
0.001393
0.001425
0.001406
0.001388
0.001406
0.001425
0.001385
0.001404
0.001391
0.001380
0.001372
0.001356
0.001359
0.001364
0.001354
0.001362
0.001372
0.001377
0.001388
0.001398
0.001375
0.001377
0.001396
0.001383
0.001398
0.001406
0.001393
0.001396
0.001409
0.001417
0.001391
0.001396
0.001391
0.001404
0.001375
0.001404
0.001388
0.001406
0.001404
0.001409
0.001388
0.001393
0.001398
0.001372
0.001391
0.001404
0.001406
0.001401
0.001391
0.001406
0.001391
0.001385
0.001393
0.001393
0.001398
0.001385
0.001393
0.001383
0.001385
0.001388
0.001393
0.001393
0.001398
0.001380
0.001404
0.001398
0.001401
0.001398
0.001388
0.001419
0.001391
0.001404
0.001401
0.001409
0.001422
0.001417
0.001375
0.001388
0.001406
0.001380
0.001383
0.001396
0.001385
0.001385
0.001404
0.001393
0.001412
0.001393
0.001406
0.001406
0.001372
0.001383
0.001404
0.001388
0.001383
0.001388
0.001380
0.001419
0.001377
0.001375
0.001398
0.001404
0.001370
0.001391
0.001383
0.001396
0.001401
0.001393
0.001414
0.001419
0.001385
0.001412
0.001380
0.001401
0.001417
0.001388
0.001377
0.001391
0.001380
0.001380
0.001388
0.001398
0.001388
0.001401
0.001398
0.001412
0.001398
0.001367
0.001383
0.001375
0.001406
0.001401
0.001406
0.001406
0.001370
0.001359
0.001375
0.001385
0.001417
0.001404
0.001425
0.001398
0.001383
0.001375
0.001343
0.001396
0.001409
0.001417
0.001414
0.001422
0.001409
0.001412
0.001393
0.001391
0.001393
0.001404
0.001385
0.001370
0.001367
0.001359
0.001391
0.001414
0.001414
0.001391
0.001393
0.001385
0.001380
0.001383
0.001417
0.001440
0.001425
0.001427
0.001435
0.001417
0.001377
0.001375
0.001322
0.001322
0.001328
0.001330
0.001359
0.001398
0.001404
0.001435
0.001440
0.001472
0.001438
0.001391
0.001430
0.001393
0.001359
0.001383
0.001338
0.001356
0.001367
0.001385
0.001414
0.001427
0.001425
0.001417
0.001372
0.001380
0.001335
0.001341
0.001359
0.001412
0.001377
0.001362
0.001372
0.001375
0.001419
0.001430
0.001448
0.001435
0.001396
0.001377
0.001333
0.001367
0.001396
0.001391
0.001401
0.001412
0.001406
0.001398
0.001414
0.001414
0.001404
0.001377
0.001377
0.001372
0.001343
0.001338
0.001359
0.001419
0.001414
0.001414
0.001404
0.001383
0.001383
0.001398
0.001393
0.001388
0.001370
0.001370
0.001362
0.001375
0.001380
0.001377
0.001422
0.001440
0.001446
0.001443
0.001427
0.001414
0.001414
0.001393
0.001375
0.001362
0.001299
0.001270
0.001144
0.001018
0.000740
0.000317
-0.000388
-0.001273
-0.002333
-0.003503
-0.004802
-0.006381
-0.008160
-0.009774
-0.010724
-0.011306
-0.011849
-0.012510
-0.012964
-0.013358
-0.013686
-0.013623
-0.013318
-0.013130
-0.013198
-0.013143
-0.013038
-0.013111
-0.012946
-0.012256
-0.011458
-0.010981
-0.010624
-0.010251
-0.009978
-0.009913
-0.009947
-0.010005
-0.010199
-0.010149
-0.009748
-0.009178
-0.008848
-0.008827
-0.008963
-0.008950
-0.008622
-0.008241
-0.008157
-0.008089
-0.007769
-0.007344
-0.007142
-0.006888
-0.006730
-0.006893
-0.007029
-0.006869
-0.006646
-0.006588
-0.006607
-0.006463
-0.006106
-0.005817
-0.005678
-0.005452
-0.005227
-0.005271
-0.005526
-0.005618
-0.005408
-0.005054
-0.004747
-0.004497
-0.004550
-0.004838
-0.004744
-0.004405
-0.004264
-0.004280
-0.004188
-0.004230
-0.004524
-0.004594
-0.004571
-0.004736
-0.005077
-0.005009
-0.004720
-0.004495
-0.004350
-0.004154
-0.003994
-0.003852
-0.003862
-0.003886
-0.003868
-0.003778
-0.003595
-0.003398
-0.003314
-0.003322
-0.003437
-0.003694
-0.003849
-0.003776
-0.003731
-0.003584
-0.003298
-0.003025
-0.002902
-0.002918
-0.003065
-0.003345
-0.003584
-0.003532
-0.003440
-0.003398
-0.003387
-0.003345
-0.003167
-0.003015
-0.002970
-0.002918
-0.002878
-0.002818
-0.002745
-0.002642
-0.002734
-0.003017
-0.003230
-0.003094
-0.002781
-0.002535
-0.002553
-0.002658
-0.002863
-0.003025
-0.002915
-0.002708
-0.002752
-0.002771
-0.002537
-0.002320
-0.002275
-0.002249
-0.002309
-0.002579
-0.002829
-0.002666
-0.002259
-0.001936
-0.001926
-0.002094
-0.002209
-0.002154
-0.002094
-0.001910
-0.001805
-0.001855
-0.001978
-0.001971
-0.001873
-0.001981
-0.002199
-0.002280
-0.002154
-0.002104
-0.002107
-0.002120
-0.002010
-0.001910
-0.001968
-0.002065
-0.002013
-0.001724
-0.001438
-0.001296
-0.001343
-0.001448
-0.001572
-0.001580
-0.001540
-0.001603
-0.001816
-0.001923
-0.001797
-0.001656
-0.001577
-0.001577
-0.001598
-0.001666
-0.001776
-0.001611
-0.001401
-0.001401
-0.001399
-0.001406
-0.001391
-0.001472
-0.001619
-0.001790
-0.001724
-0.001635
-0.001467
-0.001296
-0.001239
-0.001312
-0.001343
-0.001275
-0.001233
-0.001307
-0.001354
-0.001246
-0.001202
-0.001162
-0.001191
-0.001141
-0.001207
-0.001249
-0.001152
-0.001021
-0.001010
-0.001223
-0.001380
-0.001354
-0.001451
-0.001480
-0.001262
-0.001131
-0.001328
-0.001462
-0.001312
-0.001160
-0.001115
-0.001120
-0.000945
-0.000845
-0.000811
-0.000735
-0.000701
-0.000661
-0.000750
-0.000866
-0.000971
-0.000960
-0.000939
-0.000987
-0.001084
-0.001076
-0.001152
-0.001322
-0.001438
-0.001296
-0.001013
-0.000758
-0.000701
-0.000643
-0.000556
-0.000596
-0.000732
-0.000761
-0.000813
-0.000884
-0.000900
-0.000903
-0.000908
-0.000939
-0.000813
-0.000648
-0.000601
-0.000693
-0.000716
-0.000677
-0.000659
-0.000643
-0.000680
-0.000743
-0.000727
-0.000719
-0.000737
-0.000661
-0.000562
-0.000593
-0.000750
-0.000771
-0.000745
-0.000785
-0.000764
-0.000698
-0.000677
-0.000740
-0.000777
-0.000727
-0.000667
-0.000590
-0.000467
-0.000310
-0.000299
-0.000283
-0.000289
-0.000276
-0.000262
-0.000352
-0.000375
-0.000381
-0.000446
-0.000478
-0.000556
-0.000638
-0.000651
-0.000541
-0.000394
-0.000291
-0.000352
-0.000470
-0.000606
-0.000688
-0.000706
-0.000646
-0.000496
-0.000399
-0.000307
-0.000228
-0.000218
-0.000213
-0.000360
-0.000543
-0.000653
-0.000669
-0.000548
-0.000367
-0.000354
-0.000525
-0.000611
-0.000522
-0.000420
-0.000333
-0.000449
-0.000604
-0.000656
-0.000695
-0.000656
-0.000653
-0.000632
-0.000562
-0.000527
-0.000580
-0.000611
-0.000661
-0.000724
-0.000722
-0.000635
-0.000457
-0.000265
-0.000131
-0.000092
-0.000207
-0.000333
-0.000365
-0.000367
-0.000530
-0.000630
-0.000420
-0.000268
-0.000215
-0.000171
-0.000223
-0.000504
-0.000635
-0.000446
-0.000299
-0.000299
-0.000202
-0.000045
0.000008
-0.000003
0.000037
0.000123
0.000102
0.000024
-0.000016
-0.000102
-0.000134
-0.000087
-0.000029
-0.000026
-0.000058
-0.000018
-0.000000
-0.000039
-0.000042
-0.000011
-0.000016
-0.000074
-0.000123
-0.000199
-0.000260
-0.000249
-0.000310
-0.000362
-0.000247
-0.000063
0.000071
0.000105
0.000165
0.000202
0.000189
0.000139
0.000073
0.000029
0.000029
0.000136
0.000260
0.000252
0.000123
-0.000097
-0.000121
-0.000081
0.000031
0.000115
0.000107
0.000047
-0.000021
-0.000089
-0.000063
-0.000066
-0.000129
-0.000129
-0.000087
-0.000060
-0.000084
-0.000050
-0.000113
-0.000262
-0.000375
-0.000341
-0.000207
-0.000076
-0.000037
-0.000071
-0.000092
-0.000042
-0.000026
-0.000121
-0.000108
-0.000100
-0.000095
-0.000108
0.000013
0.000018
-0.000013
-0.000071
-0.000089
-0.000199
-0.000346
-0.000294
-0.000100
-0.000084
-0.000139
-0.000068
0.000026
0.000107
0.000207
0.000228
0.000181
0.000073
0.000034
0.000052
0.000037
0.000063
0.000186
0.000239
0.000173
0.000079
0.000097
0.000191
0.000249
0.000202
0.000268
0.000262
0.000273
0.000226
0.000121
-0.000029
-0.000139
-0.000108
-0.000024
0.000060
0.000205
0.000252
0.000207
0.000092
0.000097
0.000152
0.000194
0.000252
0.000391
0.000496
0.000467
0.000446
0.000325
0.000260
0.000323
0.000331
0.000430
0.000525
0.000519
0.000438
0.000341
0.000244
0.000184
0.000100
0.000052
0.000066
0.000034
-0.000016
0.000037
0.000107
0.000155
0.000136
0.000123
0.000157
0.000254
0.000299
0.000312
0.000307
0.000275
0.000244
0.000244
0.000315
0.000294
0.000160
0.000121
0.000128
0.000152
0.000168
0.000275
0.000247
0.000155
0.000050
-0.000042
-0.000218
-0.000234
-0.000184
-0.000202
-0.000131
0.000042
0.000194
0.000273
0.000268
0.000317
0.000333
0.000312
0.000349
0.000388
0.000325
0.000212
0.000163
0.000131
0.000045
0.000058
0.000018
-0.000011
0.000079
0.000249
0.000336
0.000341
0.000328
0.000341
0.000228
0.000207
0.000202
0.000147
0.000042
0.000031
0.000131
0.000189
0.000212
0.000239
0.000239
0.000184
0.000170
0.000207
0.000275
0.000346
0.000307
0.000275
0.000289
0.000307
0.000278
0.000197
0.000189
0.000231
0.000236
0.000281
0.000291
0.000310
0.000247
0.000275
0.000378
0.000409
0.000338
0.000304
0.000283
0.000228
0.000149
0.000121
0.000186
0.000302
0.000349
0.000372
0.000430
0.000386
0.000333
0.000433
0.000446
0.000425
0.000425
0.000527
0.000598
0.000614
0.000624
0.000611
0.000504
0.000404
0.000417
0.000433
0.000317
0.000168
0.000113
0.000157
0.000244
0.000338
0.000412
0.000404
0.000304
0.000278
0.000331
0.000338
0.000233
0.000184
0.000252
0.000323
0.000325
0.000375
0.000459
0.000517
0.000459
0.000357
0.000317
0.000275
0.000186
0.000239
0.000333
0.000407
0.000470
0.000493
0.000472
0.000430
0.000428
0.000425
0.000428
0.000404
0.000341
0.000265
0.000215
0.000262
0.000304
0.000378
0.000433
0.000449
0.000378
0.000312
0.000317
0.000359
0.000294
0.000176
0.000160
0.000270
0.000359
0.000459
0.000435
0.000404
0.000357
0.000404
0.000464
0.000467
0.000336
0.000191
0.000102
0.000163
0.000294
0.000383
0.000372
0.000346
0.000370
0.000456
0.000462
0.000422
0.000375
0.000359
0.000312
0.000383
0.000459
0.000509
0.000388
0.000304
0.000312
0.000462
0.000514
0.000577
0.000664
0.000674
0.000656
0.000643
0.000606
0.000519
0.000386
0.000315
0.000244
0.000063
-0.000113
-0.000068
0.000086
0.000262
0.000359
0.000480
0.000498
0.000483
0.000509
0.000572
0.000514
0.000425
0.000435
0.000554
0.000441
0.000393
0.000456
0.000540
0.000517
0.000498
0.000472
0.000425
0.000375
0.000407
0.000477
0.000488
0.000485
0.000561
0.000648
0.000677
0.000548
0.000409
0.000310
0.000215
0.000176
0.000294
0.000446
0.000480
0.000485
0.000514
0.000488
0.000504
0.000512
0.000525
0.000412
0.000430
0.000496
0.000535
0.000449
0.000380
0.000372
0.000412
0.000422
0.000480
0.000601
0.000567
0.000464
0.000472
0.000501
0.000430
0.000380
0.000561
0.000611
0.000630
0.000564
0.000575
0.000614
0.000603
0.000588
0.000656
0.000637
0.000598
0.000645
0.000708
0.000685
0.000575
0.000501
0.000530
0.000596
0.000601
0.000567
0.000640
0.000682
0.000698
0.000666
0.000677
0.000582
0.000491
0.000567
0.000750
0.000753
0.000645
0.000551
0.000480
0.000535
0.000593
0.000551
0.000538
0.000658
0.000735
0.000771
0.000719
0.000624
0.000422
0.000252
0.000328
0.000504
0.000543
0.000538
0.000598
0.000632
0.000624
0.000575
0.000622
0.000617
0.000559
0.000585
0.000687
0.000656
0.000535
0.000443
0.000425
0.000422
0.000404
0.000467
0.000551
0.000472
0.000459
0.000480
0.000522
0.000462
0.000462
0.000517
0.000551
0.000519
0.000525
0.000617
0.000706
0.000706
0.000627
0.000561
0.000554
0.000546
0.000575
0.000569
0.000651
0.000606
0.000619
0.000632
0.000609
0.000598
0.000556
0.000491
0.000475
0.000527
0.000590
0.000580
0.000564
0.000580
0.000627
0.000669
0.000664
0.000567
0.000506
0.000462
0.000456
0.000362
0.000359
0.000388
0.000488
0.000567
0.000630
0.000711
0.000700
0.000582
0.000480
0.000425
0.000412
0.000393
0.000475
0.000556
0.000666
0.000593
0.000514
0.000543
0.000619
0.000651
0.000700
0.000703
0.000685
0.000559
0.000556
0.000598
0.000593
0.000525
0.000514
0.000580
0.000635
0.000682
0.000714
0.000632
0.000645
0.000640
0.000637
0.000512
0.000430
0.000433
0.000435
0.000504
0.000588
0.000554
0.000569
0.000575
0.000614
0.000498
0.000422
0.000451
0.000530
0.000543
0.000522
0.000611
0.000630
0.000609
0.000640
0.000721
0.000774
0.000763
0.000803
0.000813
0.000729
0.000658
0.000685
0.000742
0.000708
0.000622
0.000577
0.000517
0.000525
0.000582
0.000632
0.000611
0.000617
0.000630
0.000703
0.000714
0.000685
0.000590
0.000459
0.000404
0.000433
0.000483
0.000582
0.000580
0.000575
0.000527
0.000485
0.000446
0.000509
0.000606
0.000653
0.000611
0.000609
0.000582
0.000525
0.000462
0.000498
0.000609
0.000606
0.000556
0.000693
0.000742
0.000632
0.000551
0.000575
0.000637
0.000700
0.000813
0.000871
0.000879
0.000787
0.000740
0.000774
0.000750
0.000698
0.000698
0.000732
0.000729
0.000798
0.000832
0.000763
0.000669
0.000669
0.000745
0.000750
0.000724
0.000792
0.000861
0.000837
0.000779
0.000763
0.000698
0.000601
0.000569
0.000669
0.000695
0.000727
0.000737
0.000729
0.000687
0.000632
0.000658
0.000645
0.000622
0.000637
0.000643
0.000682
0.000708
0.000732
0.000711
0.000711
0.000706
0.000672
0.000672
0.000724
0.000737
0.000695
0.000706
0.000714
0.000661
0.000656
0.000648
0.000640
0.000519
0.000430
0.000393
0.000446
0.000519
0.000603
0.000708
0.000779
0.000732
0.000711
0.000721
0.000711
0.000664
0.000706
0.000742
0.000750
0.000771
0.000855
0.000808
0.000721
0.000703
0.000756
0.000685
0.000658
0.000677
0.000596
0.000564
0.000580
0.000569
0.000525
0.000569
0.000577
0.000567
0.000590
0.000658
0.000648
0.000588
0.000635
0.000735
0.000798
0.000803
0.000740
0.000619
0.000596
0.000561
0.000506
0.000464
0.000577
0.000727
0.000829
0.000897
0.000895
0.000771
0.000674
0.000598
0.000593
0.000556
0.000572
0.000685
0.000756
0.000753
0.000769
0.000661
0.000624
0.000598
0.000601
0.000582
0.000598
0.000567
0.000653
0.000732
0.000727
0.000774
0.000790
0.000672
0.000619
0.000611
0.000632
0.000632
0.000582
0.000514
0.000472
0.000480
0.000577
0.000679
0.000698
0.000708
0.000771
0.000826
0.000837
0.000847
0.000790
0.000758
0.000792
0.000889
0.000892
0.000850
0.000824
0.000792
0.000782
0.000758
0.000792
0.000798
0.000753
0.000779
0.000879
0.000902
0.000866
0.000729
0.000651
0.000596
0.000501
0.000401
0.000420
0.000533
0.000763
0.000947
0.000986
0.000931
0.000866
0.000792
0.000829
0.000729
0.000601
0.000525
0.000462
0.000475
0.000596
0.000656
0.000632
0.000593
0.000606
0.000658
0.000666
0.000645
0.000554
0.000404
0.000302
0.000352
0.000509
0.000540
0.000567
0.000635
0.000687
0.000656
0.000651
0.000666
0.000719
0.000748
0.000745
0.000821
0.000902
0.000931
0.000897
0.000939
0.000934
0.000871
0.000884
0.000918
0.000918
0.000874
0.000840
0.000876
0.000879
0.000942
0.000913
0.000795
0.000632
0.000491
0.000496
0.000509
0.000632
0.000687
0.000771
0.000884
0.000937
0.000918
0.000792
0.000648
0.000582
0.000643
0.000711
0.000732
0.000748
0.000779
0.000819
0.000811
0.000840
0.000876
0.000787
0.000795
0.000905
0.000973
0.000905
0.000866
0.000803
0.000824
0.000855
0.000863
0.000879
0.000837
0.000847
0.000850
0.000787
0.000769
0.000795
0.000824
0.000882
0.000834
0.000758
0.000740
0.000756
0.000737
0.000748
0.000756
0.000740
0.000771
0.000900
0.000929
0.000895
0.000824
0.000821
0.000816
0.000829
0.000853
0.000837
0.000771
0.000758
0.000729
0.000721
0.000700
0.000732
0.000745
0.000753
0.000816
0.000902
0.000913
0.000926
0.000934
0.000960
0.000926
0.000868
0.000695
0.000556
0.000554
0.000577
0.000611
0.000666
0.000640
0.000485
0.000365
0.000467
0.000648
0.000737
0.000803
0.000921
0.000992
0.000965
0.000916
0.000853
0.000706
0.000687
0.000742
0.000795
0.000819
0.000826
0.000874
0.000889
0.000913
0.000976
0.000929
0.000965
0.000971
0.000947
0.000889
0.000784
0.000737
0.000800
0.000808
0.000861
0.000858
0.000916
0.000889
0.000876
0.000832
0.000748
0.000698
0.000735
0.000787
0.000819
0.000745
0.000748
0.000753
0.000761
0.000790
0.000819
0.000742
0.000742
0.000711
0.000727
0.000708
0.000766
0.000855
0.000939
0.001005
0.001018
0.000929
0.000790
0.000727
0.000821
0.000889
0.000876
0.000829
0.000845
0.000840
0.000847
0.000931
0.001018
0.000973
0.000879
0.000850
0.000876
0.000821
0.000750
0.000766
0.000777
0.000784
0.000819
0.000792
0.000861
0.000921
0.000965
0.001010
0.001070
0.000997
0.000952
0.000861
0.000813
0.000800
0.000792
0.000868
0.000892
0.000735
0.000559
0.000556
0.000669
0.000735
0.000813
0.000840
0.000826
0.000784
0.000813
0.000758
0.000645
0.000635
0.000672
0.000661
0.000740
0.000842
0.000871
0.000795
0.000740
0.000745
0.000795
0.000819
0.000931
0.001010
0.001021
0.001002
0.000918
0.000769
0.000603
0.000559
0.000672
0.000748
0.000740
0.000711
0.000769
0.000819
0.000824
0.000826
0.000855
0.000866
0.000874
0.000900
0.000895
0.000805
0.000842
0.000866
0.000947
0.000950
0.000994
0.000992
0.000979
0.000892
0.000916
0.000916
0.000855
0.000761
0.000700
0.000742
0.000834
0.000845
0.000853
0.000913
0.001002
0.000989
0.000971
0.000981
0.000997
0.001007
0.001023
0.001026
0.001005
0.000905
0.000879
0.000803
0.000784
0.000758
0.000803
0.000766
0.000766
0.000824
0.000845
0.000913
0.000968
0.000942
0.000874
0.000819
0.000808
0.000784
0.000795
0.000834
0.000855
0.000882
0.000950
0.000968
0.000971
0.000971
0.000973
0.000968
0.000994
0.000971
0.000939
0.000842
0.000719
0.000645
0.000758
0.000871
0.000958
0.000973
0.000905
0.000758
0.000708
0.000832
0.000918
0.000882
0.000855
0.000842
0.000850
0.000842
0.000871
0.000805
0.000774
0.000771
0.000816
0.000853
0.000876
0.000842
0.000784
0.000763
0.000882
0.000947
0.000955
0.001023
0.001034
0.000981
0.000984
0.000960
0.000931
0.000871
0.000840
0.000832
0.000816
0.000832
0.000832
0.000777
0.000774
0.000774
0.000771
0.000842
0.000840
0.000816
0.000866
0.000845
0.000813
0.000811
0.000868
0.000863
0.000813
0.000832
0.000842
0.000816
0.000714
0.000782
0.000895
0.000921
0.000895
0.000858
0.000910
0.000787
0.000758
0.000816
0.000826
0.000816
0.000840
0.000918
0.000976
0.000947
0.000944
0.001015
0.001084
0.001091
0.001102
0.001081
0.001042
0.000902
0.000866
0.000931
0.000916
0.000774
0.000750
0.000803
0.000756
0.000711
0.000798
0.000861
0.000884
0.000876
0.000926
0.000931
0.000958
0.000971
0.001005
0.000950
0.000952
0.000952
0.000876
0.000777
0.000761
0.000832
0.000918
0.000997
0.001047
0.000979
0.000892
0.000787
0.000714
0.000690
0.000742
0.000811
0.000853
0.000902
0.000929
0.000952
0.000950
0.000897
0.000866
0.000913
0.000897
0.000897
0.000968
0.000968
0.000916
0.000874
0.000905
0.000986
0.001007
0.001023
0.001070
0.001034
0.000963
0.000937
0.000947
0.000958
0.000958
0.000979
0.000992
0.000992
0.000931
0.000882
0.000829
0.000892
0.000960
0.001021
0.001010
0.001002
0.000986
0.000958
0.000976
0.001005
0.001000
0.000971
0.000952
0.000918
0.000950
0.000921
0.000979
0.001068
0.001144
0.001105
0.001115
0.001084
0.001000
0.000887
0.000863
0.000889
0.000908
0.000876
0.000887
0.000926
0.000934
0.001000
0.000981
0.000971
0.000889
0.000790
0.000795
0.000926
0.000971
0.000910
0.000805
0.000816
0.000876
0.000918
0.000955
0.000955
0.000871
0.000811
0.000811
0.000842
0.000879
0.000842
0.000887
0.000929
0.000960
0.000884
0.000834
0.000821
0.000753
0.000687
0.000690
0.000719
0.000798
0.000887
0.000913
0.000918
0.000902
0.000889
0.000882
0.000840
0.000845
0.000892
0.000937
0.000994
0.001031
0.001031
0.001028
0.000989
0.000984
0.001026
0.001036
0.001055
0.001049
0.000939
0.000879
0.000863
0.000918
0.000871
0.000892
0.000981
0.000989
0.000939
0.000955
0.001010
0.000955
0.000892
0.000939
0.001021
0.000992
0.000905
0.000939
0.000952
0.000861
0.000711
0.000658
0.000763
0.000866
0.000866
0.000871
0.000874
0.000853
0.000913
0.000992
0.001005
0.001028
0.001002
0.001047
0.001047
0.001028
0.000934
0.000944
0.000923
0.000931
0.000892
0.000923
0.000947
0.001000
0.000984
0.000939
0.000918
0.000910
0.000892
0.000955
0.001013
0.001105
0.001055
0.001036
0.001063
0.001036
0.001000
0.000973
0.000986
0.000986
0.001070
0.001118
0.001097
0.001049
0.000944
0.000902
0.000861
0.000766
0.000813
0.000910
0.000986
0.001000
0.001021
0.001023
0.000965
0.000968
0.001034
0.001055
0.000981
0.000989
0.001068
0.001110
0.001094
0.001063
0.001060
0.001034
0.000986
0.000910
0.000771
0.000682
0.000737
0.000837
0.000861
0.000923
0.000874
0.000850
0.000826
0.000900
0.000887
0.000832
0.000842
0.000861
0.000882
0.000926
0.000955
0.000968
0.001000
0.001044
0.001052
0.001031
0.000994
0.000989
0.000939
0.000866
0.000963
0.001028
0.001039
0.001015
0.000979
0.000971
0.001007
0.001036
0.001044
0.001034
0.001081
0.001094
0.001065
0.001028
0.000989
0.000905
0.000855
0.000981
0.001007
0.000958
0.000913
0.000929
0.000882
0.000826
0.000884
0.000965
0.000897
0.000819
0.000813
0.000821
0.000777
0.000819
0.000947
0.001000
0.000965
0.001039
0.001063
0.000986
0.000960
0.000984
0.000992
0.001000
0.001021
0.001049
0.001049
0.001052
0.001031
0.000997
0.001021
0.001021
0.001005
0.000994
0.000976
0.000981
0.000973
0.000968
0.000979
0.001010
0.000971
0.000950
0.001023
0.001068
0.001031
0.000955
0.000910
0.000905
0.000900
0.000910
0.000939
0.001000
0.000973
0.000979
0.000989
0.000947
0.000947
0.000958
0.000984
0.001057
0.001086
0.001070
0.001042
0.001052
0.001015
0.001052
0.001086
0.001102
0.001063
0.001057
0.001089
0.001036
0.001044
0.001105
0.001070
0.001049
0.001015
0.001007
0.001034
0.001036
0.001068
0.001057
0.001031
0.001031
0.001042
0.001000
0.000929
0.000910
0.000916
0.000918
0.000931
0.000997
0.001047
0.001018
0.001023
0.001000
0.000929
0.000929
0.000955
0.000992
0.000973
0.000939
0.000916
0.000866
0.000803
0.000834
0.000845
0.000821
0.000777
0.000832
0.000866
0.000858
0.000716
0.000706
0.000863
0.001047
0.001057
0.001076
0.001068
0.000976
0.000876
0.000887
0.000944
0.001005
0.001026
0.001084
0.001076
0.001084
0.001026
0.000989
0.000937
0.000929
0.000934
0.001036
0.001047
0.001068
0.001049
0.001031
0.001007
0.000971
0.001005
0.000986
0.000997
0.001021
0.001002
0.000931
0.000934
0.000963
0.000986
0.000979
0.000934
0.000965
0.000926
0.000855
0.000850
0.000931
0.000971
0.000931
0.000934
0.000939
0.000931
0.000916
0.000944
0.001042
0.000994
0.000997
0.001023
0.001021
0.000958
0.000973
0.000976
0.000916
0.000879
0.000944
0.001021
0.001076
0.001094
0.001102
0.001068
0.001018
0.001005
0.000986
0.000918
0.000905
0.000910
0.000926
0.000950
0.001034
0.001115
0.001120
0.001094
0.001063
0.001052
0.001000
0.001084
0.001128
0.001094
0.001073
0.001070
0.001112
0.001060
0.000934
0.000902
0.000910
0.000921
0.000929
0.000997
0.001010
0.000979
0.001042
0.001136
0.001160
0.001084
0.001013
0.000937
0.000918
0.000884
0.000900
0.000908
0.000937
0.000979
0.000960
0.000994
0.001078
0.001031
0.000992
0.000942
0.000918
0.000916
0.000923
0.000942
0.000981
0.000905
0.000850
0.000887
0.000918
0.000897
0.000884
0.000960
0.001021
0.000989
0.001021
0.001021
0.001034
0.001084
0.001144
0.001157
0.001128
0.001170
0.001136
0.001144
0.001144
0.001099
0.001086
0.001094
0.001120
0.001115
0.001076
0.001076
0.001097
0.001099
0.001076
0.001070
0.001081
0.001089
0.001073
0.001018
0.000926
0.000892
0.000889
0.000897
0.000944
0.000952
0.000942
0.000937
0.000981
0.001005
0.000989
0.000976
0.001060
0.001097
0.001084
0.001047
0.001081
0.001078
0.001039
0.000921
0.000942
0.000994
0.000997
0.001010
0.001015
0.001028
0.000994
0.001063
0.001070
0.001039
0.001081
0.001028
0.000986
0.000921
0.000908
0.000955
0.001076
0.001120
0.001123
0.001128
0.001118
0.001126
0.001110
0.001091
0.001078
0.001047
0.001094
0.001168
0.001173
0.001126
0.001115
0.001091
0.001013
0.000965
0.000963
0.000905
0.000850
0.000845
0.000908
0.000944
0.000997
0.001007
0.001039
0.001015
0.001047
0.001091
0.001147
0.001097
0.001102
0.001120
0.001141
0.001141
0.001123
0.001091
0.001057
0.001039
0.001044
0.001002
0.000986
0.001018
0.001070
0.001073
0.001089
0.001115
0.001136
0.001110
0.001123
0.001099
0.001099
0.001107
0.001105
0.001102
0.001107
0.001005
0.000939
0.000902
0.000958
0.000963
0.000910
0.000986
0.001065
0.001073
0.001060
0.001076
0.001055
0.001036
0.001099
0.001175
0.001160
0.001089
0.001118
0.001154
0.001168
0.001112
0.001063
0.001013
0.000939
0.000931
0.000944
0.000952
0.000992
0.001042
0.001105
0.001112
0.001094
0.001023
0.000950
0.000960
0.000955
0.000926
0.001000
0.001052
0.001065
0.001089
0.001120
0.001136
0.001160
0.001081
0.001081
0.001115
0.001049
0.001047
0.001081
0.001044
0.001084
0.001081
0.001078
0.001063
0.001039
0.001068
0.001031
0.001002
0.001049
0.001002
0.001060
0.001070
0.001118
0.001133
0.001152
0.001162
0.001183
0.001136
0.001110
0.001091
0.001110
0.001086
0.001086
0.001039
0.000963
0.000944
0.000963
0.000976
0.000968
0.000918
0.000979
0.001010
0.001052
0.001039
0.000950
0.000879
0.000926
0.000973
0.001026
0.001039
0.001036
0.001018
0.001005
0.001005
0.000981
0.000971
0.000916
0.000944
0.001000
0.000994
0.000997
0.001005
0.001021
0.000994
0.000923
0.000976
0.001068
0.001091
0.001110
0.001194
0.001199
0.001144
0.001102
0.001039
0.000950
0.000855
0.000884
0.000942
0.001044
0.001028
0.001047
0.001026
0.000918
0.000826
0.000882
0.000897
0.000934
0.000861
0.000942
0.001015
0.001115
0.001131
0.001102
0.001081
0.001086
0.001126
0.001144
0.001131
0.001099
0.001065
0.001063
0.001097
0.001084
0.001060
0.001013
0.000989
0.000971
0.001005
0.001070
0.001089
0.001089
0.001076
0.001047
0.001036
0.001091
0.001165
0.001168
0.001170
0.001144
0.001086
0.001070
0.001021
0.000958
0.000942
0.000931
0.000950
0.001010
0.001052
0.001086
0.001044
0.001015
0.001052
0.001015
0.000992
0.001052
0.001107
0.001141
0.001141
0.001115
0.001139
0.001089
0.000992
0.000994
0.000994
0.000960
0.000989
0.001081
0.001073
0.001055
0.001105
0.001173
0.001157
0.001154
0.001196
0.001178
0.001133
0.001065
0.001018
0.000994
0.000981
0.001028
0.001031
0.001073
0.001120
0.001152
0.001123
0.001070
0.000989
0.000942
0.000947
0.001005
0.001042
0.001091
0.001107
0.001141
0.001089
0.001120
0.001154
0.001147
0.001094
0.001065
0.001076
0.001057
0.001039
0.001065
0.001065
0.001076
0.001107
0.001173
0.001212
0.001183
0.001060
0.000992
0.001002
0.001110
0.001126
0.001094
0.001141
0.001147
0.001076
0.001010
0.001002
0.001026
0.001013
0.000992
0.001002
0.000997
0.001047
0.001084
0.001065
0.001078
0.001081
0.001094
0.001196
0.001204
0.001123
0.001028
0.000994
0.001055
0.001112
0.001144
0.001160
0.001139
0.001094
0.001078
0.001086
0.001115
0.001126
0.001141
0.001052
0.001052
0.001055
0.001073
0.001073
0.001086
0.001147
0.001196
0.001209
0.001123
0.001036
0.001021
0.001055
0.001073
0.001097
0.001097
0.001078
0.001128
0.001118
0.001139
0.001118
0.001097
0.001097
0.001131
0.001194
0.001220
0.001209
0.001168
0.001123
0.001021
0.001015
0.001091
0.001089
0.001068
0.001049
0.001034
0.001044
0.001126
0.001118
0.001052
0.001052
0.001060
0.001057
0.001094
0.001133
0.001141
0.001094
0.001063
0.001068
0.001060
0.001089
0.001094
0.001133
0.001089
0.001052
0.001099
0.001107
0.001102
0.001097
0.001060
0.001076
0.001086
0.001115
0.001102
0.001084
0.001084
0.000971
0.000929
0.000960
0.001073
0.001089
0.001097
0.001191
0.001209
0.001209
0.001228
0.001212
0.001110
0.001031
0.001084
0.001068
0.001034
0.001026
0.001068
0.001126
0.001173
0.001173
0.001165
0.001162
0.001112
0.001094
0.001102
0.001091
0.001136
0.001070
0.001086
0.001107
0.001057
0.000986
0.000986
0.000994
0.001015
0.001034
0.001052
0.001047
0.001021
0.000981
0.000981
0.001018
0.001039
0.001042
0.001049
0.001052
0.001076
0.001089
0.001131
0.001144
0.001162
0.001147
0.001175
0.001139
0.001131
0.001128
0.001099
0.001097
0.001123
0.001094
0.001049
0.001015
0.001036
0.001042
0.001112
0.001099
0.001115
0.001141
0.001178
0.001165
0.001107
0.001078
0.001084
0.001049
0.001102
0.001183
0.001175
0.001049
0.000952
0.000942
0.000997
0.001039
0.001047
0.001065
0.001097
0.001133
0.001149
0.001160
0.001170
0.001131
0.001073
0.001105
0.001131
0.001162
0.001152
0.001188
0.001246
0.001183
0.001110
0.001078
0.001099
0.001102
0.001115
0.001089
0.001065
0.001070
0.001076
0.001055
0.001105
0.001102
0.001081
0.001091
0.001165
0.001188
0.001249
0.001223
0.001168
0.001157
0.001175
0.001188
0.001147
0.001091
0.001118
0.001133
0.001141
0.001097
0.001091
0.001136
0.001102
0.001063
0.001049
0.001047
0.001099
0.001115
0.001157
0.001165
0.001070
0.001018
0.001091
0.001089
0.001089
0.001115
0.001170
0.001191
0.001215
0.001207
0.001175
0.001031
0.000955
0.000947
0.000939
0.000929
0.001015
0.001068
0.001126
0.001118
0.001070
0.001078
0.001141
0.001102
0.001073
0.001131
0.001133
0.001136
0.001154
0.001181
0.001133
0.001065
0.001055
0.001097
0.001112
0.001107
0.001097
0.001147
0.001191
0.001168
0.001105
0.001105
0.001133
0.001057
0.001036
0.001068
0.001112
0.001105
0.001105
0.001110
0.001105
0.001049
0.001049
0.001049
0.001068
0.001094
0.001183
0.001249
0.001265
0.001246
0.001233
0.001225
0.001223
0.001115
0.001010
0.001026
0.001055
0.001026
0.001065
0.001089
0.001089
0.001081
0.001115
0.001105
0.001107
0.001086
0.001112
0.001110
0.001073
0.001070
0.001084
0.001105
0.001112
0.001044
0.000981
0.001023
0.001065
0.001107
0.001097
0.001060
0.001102
0.001120
0.001152
0.001188
0.001186
0.001207
0.001212
0.001202
0.001209
0.001175
0.001183
0.001149
0.001191
0.001168
0.001212
0.001196
0.001228
0.001233
0.001188
0.001168
0.001123
0.001039
0.000981
0.000971
0.001013
0.001042
0.001147
0.001178
0.001154
0.001115
0.001002
0.000939
0.000976
0.001002
0.001031
0.001107
0.001141
0.001131
0.001147
0.001139
0.001199
0.001128
0.001097
0.001094
0.001086
0.001115
0.001123
0.001141
0.001120
0.001149
0.001165
0.001154
0.001120
0.001068
0.001084
0.001115
0.001133
0.001141
0.001133
0.001126
0.001160
0.001107
0.001131
0.001162
0.001144
0.001055
0.001081
0.001078
0.001102
0.001052
0.001026
0.001031
0.001034
0.001073
0.001133
0.001178
0.001133
0.001047
0.001070
0.001070
0.001102
0.001089
0.001112
0.001063
0.001049
0.001052
0.001063
0.001091
0.001097
0.001065
0.001052
0.001060
0.001120
0.001055
0.001042
0.001063
0.001047
0.001052
0.001141
0.001157
0.001147
0.001147
0.001157
0.001107
0.001160
0.001220
0.001199
0.001191
0.001165
0.001170
0.001162
0.001149
0.001183
0.001154
0.001147
0.001149
0.001223
0.001220
0.001188
0.001115
0.001102
0.001157
0.001209
0.001162
0.001136
0.001168
0.001175
0.001168
0.001165
0.001207
0.001188
0.001173
0.001191
0.001196
0.001168
0.001112
0.001112
0.001128
0.001112
0.001173
0.001202
0.001175
0.001139
0.001133
0.001181
0.001178
0.001186
0.001215
0.001267
0.001249
0.001225
0.001199
0.001199
0.001199
0.001202
0.001228
0.001265
0.001225
0.001223
0.001215
0.001188
0.001199
0.001196
0.001154
0.001110
0.001112
0.001133
0.001128
0.001154
0.001123
0.001107
0.001141
0.001191
0.001196
0.001168
0.001160
0.001215
0.001241
0.001228
0.001223
0.001202
0.001162
0.001112
0.001147
0.001191
0.001154
0.001060
0.000981
0.000923
0.000965
0.001042
0.001099
0.001162
0.001196
0.001170
0.001196
0.001215
0.001168
0.001178
0.001178
0.001209
0.001238
0.001262
0.001270
0.001230
0.001175
0.001094
0.001084
0.001091
0.001152
0.001178
0.001168
0.001141
0.001128
0.001157
0.001191
0.001123
0.001089
0.001149
0.001162
0.001157
0.001110
0.001136
0.001126
0.001131
0.001118
0.001110
0.001076
0.001112
0.001162
0.001162
0.001157
0.001136
0.001110
0.001063
0.001063
0.001115
0.001078
0.001084
0.001081
0.001147
0.001131
0.001154
0.001139
0.001105
0.001105
0.001105
0.001152
0.001157
0.001160
0.001165
0.001191
0.001181
0.001175
0.001209
0.001199
0.001186
0.001186
0.001217
0.001173
0.001178
0.001188
0.001194
0.001217
0.001225
0.001178
0.001136
0.001081
0.001089
0.001081
0.001052
0.001107
0.001126
0.001099
0.001115
0.001126
0.001112
0.001063
0.001057
0.001060
0.001091
0.001152
0.001207
0.001199
0.001212
0.001165
0.001073
0.001099
0.001165
0.001217
0.001238
0.001283
0.001296
0.001280
0.001254
0.001204
0.001188
0.001133
0.001123
0.001162
0.001202
0.001178
0.001170
0.001168
0.001220
0.001207
0.001191
0.001183
0.001194
0.001157
0.001173
0.001168
0.001165
0.001128
0.001139
0.001147
0.001144
0.001139
0.001154
0.001123
0.001123
0.001086
0.001065
0.001084
0.001065
0.001007
0.001086
0.001133
0.001183
0.001220
0.001233
0.001236
0.001188
0.001186
0.001238
0.001228
0.001238
0.001265
0.001286
0.001275
0.001265
0.001257
0.001267
0.001230
0.001173
0.001160
0.001165
0.001194
0.001230
0.001186
0.001186
0.001215
0.001236
0.001191
0.001178
0.001147
0.001126
0.001136
0.001139
0.001170
0.001165
0.001170
0.001133
0.001175
0.001152
0.001168
0.001230
0.001207
0.001183
0.001141
0.001112
0.001191
0.001209
0.001191
0.001133
0.001170
0.001212
0.001202
0.001230
0.001244
0.001220
0.001186
0.001141
0.001141
0.001175
0.001173
0.001173
0.001149
0.001165
0.001204
0.001173
0.001133
0.001131
0.001097
0.001110
0.001102
0.001118
0.001107
0.001068
0.001089
0.001144
0.001183
0.001165
0.001168
0.001152
0.001199
0.001207
0.001183
0.001144
0.001133
0.001120
0.001118
0.001128
0.001107
0.001173
0.001183
0.001115
0.001065
0.001068
0.001115
0.001154
0.001170
0.001199
0.001173
0.001170
0.001165
0.001202
0.001152
0.001173
0.001199
0.001262
0.001288
0.001262
0.001202
0.001162
0.001118
0.001047
0.001089
0.001186
0.001238
0.001238
0.001228
0.001212
0.001173
0.001196
0.001149
0.001194
0.001128
0.001068
0.001099
0.001084
0.001133
0.001183
0.001183
0.001112
0.001049
0.001089
0.001102
0.001126
0.001144
0.001099
0.001076
0.001112
0.001173
0.001204
0.001149
0.001149
0.001173
0.001236
0.001236
0.001233
0.001178
0.001188
0.001215
0.001202
0.001196
0.001209
0.001186
0.001144
0.001128
0.001149
0.001144
0.001128
0.001188
0.001233
0.001212
0.001220
0.001209
0.001173
0.001128
0.001110
0.001181
0.001251
0.001220
0.001178
0.001196
0.001220
0.001173
0.001186
0.001188
0.001188
0.001089
0.001034
0.001099
0.001220
0.001215
0.001212
0.001220
0.001191
0.001188
0.001225
0.001270
0.001278
0.001220
0.001215
0.001220
0.001175
0.001152
0.001139
0.001157
0.001139
0.001057
0.001084
0.001141
0.001181
0.001165
0.001152
0.001089
0.001057
0.001073
0.001136
0.001139
0.001160
0.001154
0.001186
0.001207
0.001233
0.001225
0.001259
0.001249
0.001191
0.001076
0.001049
0.001055
0.001105
0.001128
0.001128
0.001115
0.001131
0.001133
0.001220
0.001230
0.001251
0.001220
0.001223
0.001194
0.001199
0.001217
0.001233
0.001241
0.001244
0.001223
0.001230
0.001230
0.001254
0.001244
0.001141
0.001049
0.001005
0.001010
0.001094
0.001168
0.001212
0.001212
0.001154
0.001149
0.001191
0.001123
0.001052
0.001010
0.001105
0.001126
0.001170
0.001212
0.001191
0.001199
0.001230
0.001257
0.001217
0.001168
0.001183
0.001191
0.001194
0.001194
0.001168
0.001178
0.001217
0.001236
0.001236
0.001196
0.001175
0.001175
0.001141
0.001149
0.001204
0.001220
0.001212
0.001220
0.001265
0.001265
0.001251
0.001215
0.001173
0.001131
0.001178
0.001157
0.001183
0.001209
0.001194
0.001188
0.001168
0.001168
0.001178
0.001173
0.001147
0.001141
0.001152
0.001168
0.001154
0.001160
0.001217
0.001194
0.001209
0.001220
0.001196
0.001165
0.001186
0.001244
0.001249
0.001270
0.001267
0.001286
0.001238
0.001173
0.001120
0.001091
0.001055
0.001060
0.001162
0.001223
0.001225
0.001175
0.001149
0.001144
0.001154
0.001178
0.001236
0.001265
0.001225
0.001157
0.001141
0.001131
0.001105
0.001147
0.001202
0.001265
0.001238
0.001238
0.001209
0.001183
0.001202
0.001207
0.001236
0.001246
0.001278
0.001262
0.001251
0.001188
0.001154
0.001131
0.001233
0.001299
0.001293
0.001314
0.001301
0.001244
0.001207
0.001173
0.001157
0.001168
0.001191
0.001246
0.001249
0.001233
0.001217
0.001162
0.001118
0.001065
0.001068
0.001126
0.001196
0.001215
0.001233
0.001249
0.001307
0.001259
0.001249
0.001228
0.001207
0.001173
0.001157
0.001160
0.001154
0.001126
0.001199
0.001191
0.001241
0.001223
0.001257
0.001241
0.001209
0.001196
0.001215
0.001188
0.001249
0.001259
0.001233
0.001199
0.001191
0.001131
0.001120
0.001120
0.001089
0.001097
0.001136
0.001225
0.001215
0.001178
0.001202
0.001139
0.001139
0.001112
0.001207
0.001204
0.001157
0.001131
0.001162
0.001217
0.001283
0.001223
0.001228
0.001194
0.001181
0.001233
0.001286
0.001301
0.001296
0.001249
0.001265
0.001220
0.001204
0.001215
0.001157
0.001207
0.001257
0.001278
0.001230
0.001209
0.001173
0.001181
0.001147
0.001196
0.001283
0.001233
0.001225
0.001204
0.001225
0.001207
0.001188
0.001251
0.001288
0.001291
0.001299
0.001322
0.001354
0.001257
0.001236
0.001254
0.001236
0.001165
0.001165
0.001118
0.001160
0.001194
0.001186
0.001170
0.001238
0.001212
0.001204
0.001191
0.001173
0.001094
0.001021
0.001013
0.001044
0.001073
0.001023
0.001034
0.001070
0.001078
0.001105
0.001168
0.001217
0.001204
0.001194
0.001165
0.001183
0.001207
0.001217
0.001183
0.001191
0.001165
0.001160
0.001126
0.001099
0.001065
0.001105
0.001186
0.001233
0.001288
0.001293
0.001280
0.001286
0.001241
0.001194
0.001149
0.001141
0.001168
0.001173
0.001194
0.001196
0.001217
0.001230
0.001228
0.001257
0.001251
0.001270
0.001244
0.001241
0.001223
0.001241
0.001262
0.001225
0.001207
0.001217
0.001236
0.001238
0.001165
0.001147
0.001168
0.001194
0.001191
0.001207
0.001267
0.001270
0.001278
0.001270
0.001241
0.001168
0.001084
0.001102
0.001133
0.001186
0.001223
0.001236
0.001236
0.001270
0.001283
0.001267
0.001223
0.001236
0.001220
0.001238
0.001272
0.001270
0.001233
0.001175
0.001186
0.001186
0.001181
0.001196
0.001209
0.001278
0.001288
0.001296
0.001309
0.001312
0.001236
0.001186
0.001089
0.001131
0.001078
0.001026
0.001086
0.001183
0.001209
0.001191
0.001152
0.001196
0.001149
0.001149
0.001196
0.001202
0.001230
0.001254
0.001265
0.001283
0.001236
0.001152
0.001173
0.001168
0.001199
0.001246
0.001233
0.001244
0.001254
0.001249
0.001202
0.001173
0.001070
0.000973
0.000937
0.000994
0.001076
0.001102
0.001120
0.001199
0.001188
0.001209
0.001225
0.001230
0.001173
0.001141
0.001160
0.001217
0.001236
0.001254
0.001225
0.001207
0.001102
0.001147
0.001154
0.001141
0.001152
0.001173
0.001223
0.001265
0.001238
0.001267
0.001220
0.001144
0.001102
0.001105
0.001136
0.001165
0.001173
0.001170
0.001147
0.001183
0.001204
0.001209
0.001199
0.001168
0.001178
0.001233
0.001228
0.001228
0.001215
0.001168
0.001107
0.001154
0.001183
0.001223
0.001241
0.001283
0.001249
0.001249
0.001275
0.001335
0.001278
0.001251
0.001238
0.001259
0.001230
0.001244
0.001280
0.001259
0.001246
0.001249
0.001249
0.001215
0.001165
0.001165
0.001154
0.001186
0.001241
0.001230
0.001230
0.001278
0.001267
0.001275
0.001249
0.001233
0.001236
0.001207
0.001173
0.001186
0.001170
0.001165
0.001168
0.001212
0.001207
0.001233
0.001312
0.001343
0.001312
0.001288
0.001288
0.001314
0.001307
0.001230
0.001215
0.001188
0.001170
0.001178
0.001199
0.001244
0.001233
0.001238
0.001217
0.001202
0.001215
0.001254
0.001293
0.001296
0.001241
0.001225
0.001236
0.001238
0.001199
0.001212
0.001233
0.001241
0.001215
0.001246
0.001225
0.001209
0.001212
0.001217
0.001217
0.001288
0.001296
0.001270
0.001212
0.001265
0.001246
0.001212
0.001244
0.001320
0.001288
0.001288
0.001314
0.001343
0.001286
0.001233
0.001188
0.001191
0.001199
0.001191
0.001178
0.001202
0.001220
0.001202
0.001209
0.001209
0.001207
0.001215
0.001228
0.001259
0.001267
0.001272
0.001280
0.001312
0.001259
0.001262
0.001207
0.001215
0.001178
0.001136
0.001144
0.001131
0.001152
0.001170
0.001225
0.001220
0.001194
0.001249
0.001236
0.001301
0.001325
0.001322
0.001296
0.001270
0.001275
0.001249
0.001196
0.001207
0.001215
0.001244
0.001209
0.001246
0.001296
0.001262
0.001220
0.001225
0.001223
0.001246
0.001223
0.001238
0.001254
0.001215
0.001209
0.001202
0.001199
0.001259
0.001283
0.001301
0.001270
0.001254
0.001191
0.001194
0.001188
0.001220
0.001220
0.001225
0.001199
0.001170
0.001149
0.001194
0.001168
0.001225
0.001181
0.001181
0.001157
0.001196
0.001196
0.001204
0.001275
0.001265
0.001257
0.001259
0.001233
0.001238
0.001147
0.001120
0.001165
0.001186
0.001228
0.001233
0.001230
0.001191
0.001194
0.001241
0.001220
0.001230
0.001194
0.001217
0.001228
0.001230
0.001265
0.001283
0.001236
0.001215
0.001230
0.001286
0.001225
0.001209
0.001212
0.001204
0.001186
0.001188
0.001207
0.001188
0.001060
0.001073
0.001123
0.001194
0.001225
0.001209
0.001215
0.001259
0.001275
0.001278
0.001286
0.001296
0.001283
0.001296
0.001267
0.001288
0.001291
0.001249
0.001259
0.001283
0.001301
0.001236
0.001207
0.001272
0.001280
0.001317
0.001291
0.001346
0.001362
0.001317
0.001283
0.001270
0.001188
0.001139
0.001196
0.001249
0.001230
0.001228
0.001270
0.001288
0.001238
0.001202
0.001215
0.001230
0.001181
0.001152
0.001173
0.001165
0.001191
0.001212
0.001228
0.001265
0.001251
0.001259
0.001265
0.001322
0.001293
0.001249
0.001202
0.001238
0.001225
0.001223
0.001223
0.001199
0.001199
0.001223
0.001251
0.001212
0.001207
0.001217
0.001170
0.001162
0.001160
0.001170
0.001188
0.001217
0.001254
0.001267
0.001275
0.001246
0.001275
0.001278
0.001267
0.001325
0.001291
0.001286
0.001246
0.001257
0.001215
0.001202
0.001186
0.001228
0.001238
0.001217
0.001244
0.001296
0.001291
0.001288
0.001259
0.001233
0.001186
0.001191
0.001259
0.001257
0.001257
0.001236
0.001199
0.001196
0.001165
0.001183
0.001160
0.001173
0.001162
0.001194
0.001204
0.001228
0.001199
0.001204
0.001230
0.001244
0.001230
0.001209
0.001272
0.001278
0.001270
0.001280
0.001309
0.001317
0.001304
0.001283
0.001246
0.001238
0.001233
0.001241
0.001228
0.001262
0.001244
0.001249
0.001296
0.001309
0.001291
0.001288
0.001194
0.001139
0.001097
0.001133
0.001157
0.001175
0.001202
0.001249
0.001280
0.001296
0.001291
0.001233
0.001188
0.001186
0.001241
0.001312
0.001309
0.001286
0.001283
0.001251
0.001254
0.001280
0.001259
0.001270
0.001236
0.001215
0.001160
0.001126
0.001147
0.001183
0.001209
0.001228
0.001257
0.001275
0.001265
0.001246
0.001280
0.001283
0.001270
0.001270
0.001236
0.001181
0.001157
0.001175
0.001212
0.001244
0.001228
0.001215
0.001223
0.001207
0.001236
0.001212
0.001233
0.001275
0.001272
0.001286
0.001272
0.001228
0.001223
0.001207
0.001168
0.001141
0.001107
0.001131
0.001149
0.001186
0.001212
0.001238
0.001257
0.001299
0.001286
0.001272
0.001251
0.001251
0.001278
0.001309
0.001280
0.001309
0.001265
0.001251
0.001262
0.001228
0.001183
0.001147
0.001128
0.001139
0.001141
0.001149
0.001123
0.001154
0.001241
0.001254
0.001188
0.001178
0.001165
0.001188
0.001220
0.001223
0.001238
0.001202
0.001165
0.001183
0.001157
0.001230
0.001246
0.001236
0.001270
0.001307
0.001283
0.001233
0.001223
0.001241
0.001251
0.001299
0.001330
0.001307
0.001283
0.001272
0.001270
0.001246
0.001181
0.001194
0.001175
0.001212
0.001233
0.001244
0.001194
0.001249
0.001278
0.001296
0.001309
0.001291
0.001309
0.001338
0.001312
0.001296
0.001270
0.001304
0.001301
0.001259
0.001215
0.001202
0.001204
0.001209
0.001238
0.001241
0.001280
0.001286
0.001270
0.001265
0.001238
0.001233
0.001251
0.001280
0.001249
0.001259
0.001251
0.001249
0.001236
0.001207
0.001212
0.001209
0.001196
0.001215
0.001204
0.001230
0.001209
0.001196
0.001204
0.001217
0.001267
0.001259
0.001251
0.001307
0.001288
0.001296
0.001267
0.001288
0.001296
0.001283
0.001301
0.001307
0.001233
0.001280
0.001254
0.001259
0.001244
0.001204
0.001249
0.001265
0.001267
0.001288
0.001257
0.001212
0.001165
0.001225
0.001246
0.001278
0.001272
0.001286
0.001236
0.001225
0.001212
0.001215
0.001251
0.001267
0.001304
0.001330
0.001338
0.001328
0.001278
0.001233
0.001202
0.001215
0.001228
0.001251
0.001278
0.001272
0.001236
0.001291
0.001280
0.001286
0.001262
0.001293
0.001304
0.001283
0.001278
0.001272
0.001275
0.001301
0.001275
0.001251
0.001236
0.001225
0.001217
0.001188
0.001186
0.001249
0.001244
0.001283
0.001286
0.001288
0.001254
0.001186
0.001157
0.001220
0.001228
0.001199
0.001230
0.001230
0.001191
0.001170
0.001183
0.001236
0.001223
0.001249
0.001262
0.001330
0.001288
0.001291
0.001320
0.001320
0.001288
0.001254
0.001280
0.001278
0.001225
0.001133
0.001181
0.001244
0.001275
0.001301
0.001301
0.001272
0.001207
0.001209
0.001254
0.001317
0.001259
0.001267
0.001288
0.001291
0.001272
0.001265
0.001267
0.001241
0.001233
0.001251
0.001241
0.001220
0.001223
0.001238
0.001209
0.001215
0.001220
0.001202
0.001212
0.001272
0.001265
0.001265
0.001230
0.001228
0.001238
0.001228
0.001202
0.001173
0.001188
0.001236
0.001223
0.001244
0.001204
0.001199
0.001199
0.001207
0.001228
0.001223
0.001225
0.001257
0.001278
0.001333
0.001320
0.001283
0.001257
0.001249
t0(sec) = 0.000000E+0
dt(sec) = 4.000000E-10
F3:INSP "
DESCRIPTOR_NAME    : WAVEDESC           
TEMPLATE_NAME      : LECROY_2_3         
COMM_TYPE          : word               
COMM_ORDER         : HIFIRST            
WAVE_DESCRIPTOR    : 346                
USER_TEXT          : 0                  
RES_DESC1          : 0                  
TRIGTIME_ARRAY     : 0                  
RIS_TIME_ARRAY     : 0                  
RES_ARRAY1         : 0                  
WAVE_ARRAY_1       : 9952               
WAVE_ARRAY_2       : 0                  
RES_ARRAY2         : 0                  
RES_ARRAY3         : 0                  
INSTRUMENT_NAME    : LECROYHDO6104      
INSTRUMENT_NUMBER  : 6308               
TRACE_LABEL        :                    
RESERVED1          : 4976               
RESERVED2          : 0                  
WAVE_ARRAY_COUNT   : 4976               
PNTS_PER_SCREEN    : 5000               
FIRST_VALID_PNT    : 0                  
LAST_VALID_PNT     : 4975               
FIRST_POINT        : 0                  
SPARSING_FACTOR    : 1                  
SEGMENT_INDEX      : 0                  
SUBARRAY_COUNT     : 1                  
SWEEPS_PER_ACQ     : 200                
POINTS_PER_PAIR    : 0                  
PAIR_OFFSET        : 0                  
VERTICAL_GAIN      : 2.4989e-006        
VERTICAL_OFFSET    : 1.6500e-002        
MAX_VALUE          : 3.0578e+004        
MIN_VALUE          : 1.4827e+004        
NOMINAL_BITS       : 16                 
NOM_SUBARRAY_COUNT : 1                  
HORIZ_INTERVAL     : 4.0000e-010        
HORIZ_OFFSET       : -2.00000000e-007   
PIXEL_OFFSET       : -2.10000000e-007   
VERTUNIT           : Unit Name = V
HORUNIT            : Unit Name = S
HORIZ_UNCERTAINTY  : 1.0000e-012        
TRIGGER_TIME       : Date = APR 17, 2024, Time = 19:30:19.806297508
ACQ_DURATION       : 1.0064e+001        
RECORD_TYPE        : single_sweep       
PROCESSING_DONE    : no_processing      
RESERVED5          : 0                  
RIS_SWEEPS         : 1                  
TIMEBASE           : 200_ns/div         
VERT_COUPLING      : DC_50_Ohms         
PROBE_ATT          : 1.0000e+000        
FIXED_VERT_GAIN    : 5_mV/div           
BANDWIDTH_LIMIT    : off                
VERTICAL_VERNIER   : 1.0000e+000        
ACQ_VERT_OFFSET    : 0.0000e+000        
WAVE_SOURCE        : UNKNOWN            
"
0.000475
0.000495
0.000485
0.000467
0.000495
0.000485
0.000477
0.000500
0.000492
0.000495
0.000520
0.000477
0.000477
0.000512
0.000475
0.000487
0.000497
0.000480
0.000487
0.000485
0.000465
0.000480
0.000452
0.000422
0.000447
0.000442
0.000467
0.000442
0.000472
0.000455
0.000465
0.000467
0.000457
0.000472
0.000472
0.000467
0.000492
0.000475
0.000470
0.000480
0.000470
0.000460
0.000462
0.000472
0.000490
0.000492
0.000485
0.000465
0.000467
0.000475
0.000482
0.000465
0.000497
0.000490
0.000477
0.000482
0.000497
0.000482
0.000505
0.000487
0.000495
0.000512
0.000490
0.000492
0.000525
0.000480
0.000492
0.000492
0.000512
0.000510
0.000497
0.000482
0.000502
0.000487
0.000482
0.000490
0.000495
0.000462
0.000497
0.000467
0.000472
0.000497
0.000465
0.000462
0.000480
0.000472
0.000475
0.000472
0.000457
0.000475
0.000487
0.000462
0.000467
0.000480
0.000462
0.000445
0.000472
0.000477
0.000477
0.000440
0.000457
0.000457
0.000462
0.000470
0.000465
0.000472
0.000465
0.000442
0.000447
0.000475
0.000495
0.000457
0.000477
0.000495
0.000470
0.000442
0.000505
0.000452
0.000492
0.000482
0.000465
0.000492
0.000460
0.000492
0.000482
0.000475
0.000497
0.000485
0.000462
0.000477
0.000495
0.000462
0.000467
0.000482
0.000502
0.000492
0.000487
0.000490
0.000495
0.000480
0.000505
0.000492
0.000495
0.000480
0.000475
0.000475
0.000467
0.000470
0.000480
0.000465
0.000487
0.000445
0.000497
0.000485
0.000490
0.000490
0.000542
0.000492
0.000510
0.000502
0.000532
0.000512
0.000482
0.000492
0.000532
0.000500
0.000467
0.000467
0.000455
0.000445
0.000460
0.000427
0.000452
0.000475
0.000447
0.000447
0.000482
0.000455
0.000462
0.000460
0.000477
0.000477
0.000465
0.000470
0.000500
0.000477
0.000480
0.000480
0.000495
0.000462
0.000480
0.000485
0.000450
0.000477
0.000465
0.000485
0.000465
0.000457
0.000455
0.000470
0.000475
0.000457
0.000457
0.000460
0.000490
0.000480
0.000482
0.000495
0.000475
0.000480
0.000495
0.000482
0.000485
0.000482
0.000485
0.000485
0.000485
0.000502
0.000500
0.000485
0.000477
0.000465
0.000480
0.000477
0.000485
0.000482
0.000492
0.000482
0.000460
0.000445
0.000455
0.000445
0.000472
0.000450
0.000465
0.000465
0.000455
0.000450
0.000495
0.000487
0.000465
0.000490
0.000492
0.000475
0.000505
0.000465
0.000485
0.000475
0.000462
0.000492
0.000502
0.000462
0.000465
0.000480
0.000452
0.000447
0.000477
0.000467
0.000487
0.000462
0.000470
0.000460
0.000502
0.000480
0.000500
0.000500
0.000495
0.000502
0.000505
0.000492
0.000515
0.000455
0.000460
0.000462
0.000442
0.000442
0.000477
0.000447
0.000457
0.000452
0.000462
0.000470
0.000482
0.000470
0.000517
0.000472
0.000525
0.000515
0.000487
0.000475
0.000500
0.000472
0.000475
0.000487
0.000467
0.000457
0.000472
0.000445
0.000447
0.000447
0.000487
0.000482
0.000465
0.000455
0.000482
0.000490
0.000525
0.000490
0.000497
0.000490
0.000525
0.000512
0.000490
0.000502
0.000480
0.000447
0.000490
0.000485
0.000470
0.000450
0.000495
0.000482
0.000467
0.000455
0.000485
0.000480
0.000482
0.000492
0.000482
0.000462
0.000495
0.000447
0.000457
0.000477
0.000502
0.000475
0.000495
0.000487
0.000460
0.000462
0.000487
0.000460
0.000462
0.000482
0.000502
0.000485
0.000500
0.000495
0.000507
0.000477
0.000510
0.000480
0.000515
0.000475
0.000482
0.000465
0.000477
0.000477
0.000485
0.000475
0.000492
0.000485
0.000487
0.000467
0.000492
0.000465
0.000477
0.000497
0.000485
0.000475
0.000490
0.000477
0.000462
0.000462
0.000467
0.000425
0.000455
0.000480
0.000497
0.000482
0.000492
0.000487
0.000495
0.000507
0.000487
0.000492
0.000490
0.000495
0.000467
0.000480
0.000470
0.000460
0.000462
0.000470
0.000487
0.000450
0.000472
0.000482
0.000455
0.000472
0.000502
0.000475
0.000482
0.000487
0.000495
0.000505
0.000505
0.000487
0.000462
0.000470
0.000472
0.000457
0.000470
0.000477
0.000460
0.000422
0.000477
0.000482
0.000465
0.000480
0.000480
0.000467
0.000472
0.000487
0.000485
0.000485
0.000500
0.000495
0.000490
0.000490
0.000530
0.000512
0.000487
0.000482
0.000460
0.000422
0.000460
0.000427
0.000462
0.000525
0.000520
0.000532
0.000512
0.000470
0.000450
0.000435
0.000477
0.000475
0.000505
0.000472
0.000455
0.000430
0.000397
0.000412
0.000470
0.000530
0.000580
0.000612
0.000585
0.000532
0.000472
0.000425
0.000407
0.000407
0.000460
0.000485
0.000520
0.000502
0.000505
0.000477
0.000492
0.000480
0.000472
0.000477
0.000450
0.000400
0.000385
0.000405
0.000380
0.000447
0.000505
0.000480
0.000497
0.000450
0.000427
0.000430
0.000450
0.000480
0.000535
0.000552
0.000567
0.000527
0.000475
0.000437
0.000420
0.000365
0.000402
0.000467
0.000462
0.000487
0.000460
0.000447
0.000457
0.000480
0.000565
0.000587
0.000580
0.000515
0.000395
0.000332
0.000320
0.000275
0.000332
0.000380
0.000405
0.000352
0.000372
0.000410
0.000495
0.000620
0.000740
0.000762
0.000692
0.000645
0.000595
0.000512
0.000580
0.000572
0.000595
0.000547
0.000522
0.000502
0.000397
0.000430
0.000455
0.000427
0.000472
0.000422
0.000340
0.000340
0.000372
0.000310
0.000367
0.000432
0.000482
0.000582
0.000657
0.000692
0.000682
0.000590
0.000527
0.000405
0.000232
0.000152
0.000135
0.000100
0.000177
0.000240
0.000322
0.000445
0.000595
0.000720
0.000835
0.000920
0.001000
0.000977
0.000907
0.000772
0.000532
0.000195
-0.000025
-0.000342
-0.000640
-0.000930
-0.001227
-0.001544
-0.001787
-0.001977
-0.002162
-0.002284
-0.002334
-0.002394
-0.002421
-0.002471
-0.002519
-0.002679
-0.002854
-0.003004
-0.003101
-0.003156
-0.003126
-0.003029
-0.002879
-0.002616
-0.002334
-0.002149
-0.001949
-0.001799
-0.001699
-0.001614
-0.001502
-0.001477
-0.001484
-0.001524
-0.001604
-0.001734
-0.001779
-0.001754
-0.001624
-0.001479
-0.001434
-0.001447
-0.001487
-0.001492
-0.001422
-0.001384
-0.001249
-0.001092
-0.001002
-0.000890
-0.000777
-0.000800
-0.000835
-0.000872
-0.000900
-0.000922
-0.000932
-0.000902
-0.000885
-0.000827
-0.000755
-0.000747
-0.000745
-0.000707
-0.000717
-0.000742
-0.000732
-0.000762
-0.000792
-0.000737
-0.000647
-0.000577
-0.000467
-0.000397
-0.000255
-0.000187
-0.000142
-0.000172
-0.000242
-0.000347
-0.000450
-0.000610
-0.000757
-0.000835
-0.000835
-0.000840
-0.000742
-0.000567
-0.000437
-0.000285
-0.000122
-0.000062
0.000057
0.000162
0.000242
0.000212
0.000160
0.000035
-0.000135
-0.000355
-0.000480
-0.000607
-0.000680
-0.000665
-0.000585
-0.000532
-0.000377
-0.000272
-0.000177
-0.000062
0.000085
0.000112
0.000145
0.000112
0.000102
0.000042
-0.000050
-0.000122
-0.000270
-0.000372
-0.000367
-0.000415
-0.000475
-0.000437
-0.000382
-0.000415
-0.000270
-0.000135
-0.000085
0.000045
0.000192
0.000272
0.000305
0.000255
0.000217
0.000147
0.000047
-0.000030
-0.000145
-0.000227
-0.000247
-0.000290
-0.000277
-0.000175
-0.000085
-0.000072
-0.000018
0.000010
0.000005
0.000020
0.000082
0.000087
0.000045
0.000055
0.000062
0.000030
0.000030
0.000032
0.000035
-0.000043
0.000025
0.000007
-0.000067
-0.000023
0.000030
0.000017
0.000080
0.000142
0.000147
0.000120
0.000147
0.000145
0.000100
0.000135
0.000125
0.000090
0.000057
0.000055
0.000052
0.000027
0.000045
0.000015
-0.000023
-0.000072
-0.000070
-0.000110
-0.000055
0.000035
0.000110
0.000120
0.000195
0.000202
0.000202
0.000210
0.000227
0.000235
0.000192
0.000187
0.000167
0.000075
0.000070
0.000065
0.000040
0.000035
0.000050
0.000017
0.000015
0.000047
0.000042
0.000060
0.000137
0.000200
0.000272
0.000285
0.000375
0.000387
0.000392
0.000382
0.000355
0.000290
0.000205
0.000132
0.000022
-0.000060
-0.000105
-0.000175
-0.000117
-0.000095
-0.000025
0.000037
0.000155
0.000257
0.000317
0.000402
0.000455
0.000487
0.000475
0.000460
0.000367
0.000267
0.000182
0.000065
-0.000023
-0.000025
-0.000060
-0.000072
-0.000043
-0.000003
0.000100
0.000147
0.000310
0.000402
0.000477
0.000530
0.000540
0.000487
0.000450
0.000365
0.000297
0.000197
0.000125
0.000015
-0.000095
-0.000127
-0.000105
-0.000110
-0.000008
0.000115
0.000210
0.000277
0.000397
0.000405
0.000405
0.000420
0.000430
0.000342
0.000307
0.000265
0.000257
0.000190
0.000210
0.000202
0.000252
0.000267
0.000300
0.000275
0.000307
0.000305
0.000290
0.000285
0.000257
0.000227
0.000187
0.000180
0.000175
0.000182
0.000162
0.000182
0.000222
0.000247
0.000327
0.000345
0.000332
0.000380
0.000365
0.000307
0.000262
0.000257
0.000232
0.000165
0.000167
0.000162
0.000155
0.000152
0.000197
0.000222
0.000280
0.000322
0.000377
0.000362
0.000377
0.000362
0.000307
0.000242
0.000240
0.000142
0.000090
0.000085
0.000095
0.000105
0.000185
0.000260
0.000317
0.000325
0.000422
0.000397
0.000385
0.000350
0.000342
0.000275
0.000265
0.000237
0.000152
0.000140
0.000130
0.000127
0.000137
0.000212
0.000280
0.000297
0.000360
0.000362
0.000407
0.000387
0.000390
0.000352
0.000280
0.000252
0.000250
0.000207
0.000210
0.000220
0.000247
0.000285
0.000315
0.000380
0.000412
0.000455
0.000472
0.000402
0.000405
0.000355
0.000307
0.000252
0.000182
0.000115
0.000072
0.000082
0.000165
0.000162
0.000232
0.000315
0.000400
0.000435
0.000490
0.000497
0.000490
0.000477
0.000442
0.000345
0.000320
0.000267
0.000202
0.000187
0.000197
0.000190
0.000212
0.000262
0.000330
0.000337
0.000387
0.000412
0.000425
0.000412
0.000407
0.000372
0.000325
0.000267
0.000232
0.000207
0.000187
0.000210
0.000220
0.000267
0.000315
0.000345
0.000362
0.000402
0.000420
0.000420
0.000430
0.000392
0.000372
0.000325
0.000312
0.000237
0.000272
0.000277
0.000275
0.000287
0.000312
0.000310
0.000352
0.000370
0.000362
0.000355
0.000332
0.000312
0.000307
0.000315
0.000292
0.000250
0.000245
0.000222
0.000252
0.000247
0.000272
0.000290
0.000325
0.000340
0.000385
0.000380
0.000397
0.000367
0.000382
0.000350
0.000332
0.000282
0.000305
0.000290
0.000280
0.000300
0.000330
0.000365
0.000410
0.000425
0.000480
0.000455
0.000447
0.000430
0.000440
0.000387
0.000330
0.000307
0.000250
0.000205
0.000192
0.000147
0.000177
0.000195
0.000245
0.000320
0.000382
0.000447
0.000475
0.000467
0.000507
0.000492
0.000452
0.000427
0.000387
0.000365
0.000330
0.000290
0.000295
0.000285
0.000310
0.000335
0.000327
0.000345
0.000382
0.000395
0.000397
0.000387
0.000370
0.000330
0.000320
0.000307
0.000305
0.000280
0.000297
0.000320
0.000332
0.000340
0.000385
0.000375
0.000402
0.000392
0.000402
0.000387
0.000385
0.000325
0.000345
0.000325
0.000312
0.000292
0.000312
0.000320
0.000335
0.000340
0.000385
0.000392
0.000425
0.000455
0.000440
0.000445
0.000380
0.000337
0.000312
0.000305
0.000275
0.000260
0.000230
0.000245
0.000262
0.000245
0.000297
0.000335
0.000360
0.000385
0.000435
0.000457
0.000450
0.000427
0.000435
0.000390
0.000357
0.000317
0.000335
0.000335
0.000295
0.000342
0.000372
0.000382
0.000420
0.000425
0.000432
0.000445
0.000435
0.000410
0.000417
0.000365
0.000357
0.000315
0.000267
0.000275
0.000257
0.000285
0.000330
0.000330
0.000362
0.000407
0.000455
0.000445
0.000470
0.000437
0.000430
0.000390
0.000365
0.000335
0.000307
0.000292
0.000315
0.000265
0.000307
0.000325
0.000337
0.000350
0.000375
0.000442
0.000417
0.000447
0.000475
0.000395
0.000392
0.000360
0.000345
0.000322
0.000307
0.000285
0.000317
0.000310
0.000317
0.000352
0.000355
0.000390
0.000392
0.000365
0.000402
0.000407
0.000400
0.000372
0.000377
0.000337
0.000327
0.000337
0.000345
0.000347
0.000367
0.000337
0.000365
0.000370
0.000375
0.000392
0.000387
0.000385
0.000400
0.000380
0.000402
0.000392
0.000367
0.000350
0.000367
0.000327
0.000352
0.000355
0.000337
0.000355
0.000345
0.000355
0.000380
0.000365
0.000405
0.000360
0.000360
0.000347
0.000370
0.000312
0.000347
0.000342
0.000355
0.000345
0.000367
0.000380
0.000425
0.000387
0.000392
0.000402
0.000402
0.000382
0.000387
0.000360
0.000372
0.000377
0.000337
0.000372
0.000382
0.000375
0.000382
0.000425
0.000432
0.000477
0.000470
0.000475
0.000482
0.000442
0.000447
0.000445
0.000432
0.000380
0.000375
0.000317
0.000315
0.000290
0.000332
0.000337
0.000330
0.000337
0.000385
0.000382
0.000420
0.000420
0.000415
0.000415
0.000405
0.000405
0.000415
0.000405
0.000395
0.000382
0.000410
0.000377
0.000360
0.000365
0.000412
0.000430
0.000417
0.000395
0.000440
0.000432
0.000402
0.000380
0.000397
0.000385
0.000390
0.000390
0.000370
0.000357
0.000357
0.000365
0.000365
0.000392
0.000372
0.000380
0.000420
0.000440
0.000432
0.000402
0.000400
0.000397
0.000395
0.000345
0.000372
0.000375
0.000355
0.000372
0.000380
0.000377
0.000405
0.000387
0.000427
0.000422
0.000420
0.000425
0.000417
0.000427
0.000410
0.000372
0.000395
0.000362
0.000370
0.000352
0.000377
0.000377
0.000360
0.000390
0.000400
0.000397
0.000412
0.000402
0.000422
0.000410
0.000410
0.000380
0.000427
0.000385
0.000385
0.000377
0.000380
0.000372
0.000380
0.000425
0.000427
0.000395
0.000440
0.000437
0.000447
0.000417
0.000400
0.000362
0.000355
0.000357
0.000320
0.000345
0.000360
0.000380
0.000362
0.000385
0.000370
0.000377
0.000387
0.000370
0.000405
0.000402
0.000375
0.000382
0.000410
0.000350
0.000370
0.000350
0.000385
0.000392
0.000377
0.000412
0.000440
0.000410
0.000425
0.000412
0.000425
0.000447
0.000427
0.000425
0.000432
0.000410
0.000435
0.000352
0.000372
0.000372
0.000380
0.000355
0.000385
0.000382
0.000390
0.000380
0.000387
0.000397
0.000405
0.000402
0.000425
0.000430
0.000435
0.000365
0.000390
0.000387
0.000400
0.000380
0.000402
0.000390
0.000397
0.000395
0.000377
0.000422
0.000390
0.000405
0.000422
0.000455
0.000425
0.000435
0.000402
0.000410
0.000422
0.000372
0.000387
0.000370
0.000372
0.000375
0.000372
0.000372
0.000357
0.000365
0.000372
0.000397
0.000387
0.000370
0.000407
0.000387
0.000380
0.000392
0.000395
0.000390
0.000440
0.000370
0.000400
0.000422
0.000382
0.000390
0.000390
0.000400
0.000415
0.000382
0.000447
0.000452
0.000392
0.000412
0.000432
0.000387
0.000407
0.000402
0.000420
0.000412
0.000432
0.000397
0.000430
0.000435
0.000410
0.000402
0.000425
0.000417
0.000385
0.000410
0.000407
0.000417
0.000415
0.000412
0.000450
0.000402
0.000427
0.000445
0.000442
0.000430
0.000437
0.000412
0.000425
0.000400
0.000367
0.000352
0.000347
0.000362
0.000357
0.000360
0.000395
0.000405
0.000387
0.000442
0.000415
0.000410
0.000400
0.000415
0.000405
0.000400
0.000450
0.000400
0.000365
0.000387
0.000355
0.000380
0.000387
0.000370
0.000420
0.000367
0.000395
0.000407
0.000400
0.000405
0.000395
0.000402
0.000395
0.000430
0.000420
0.000410
0.000430
0.000402
0.000390
0.000420
0.000400
0.000405
0.000370
0.000412
0.000427
0.000377
0.000405
0.000427
0.000395
0.000392
0.000407
0.000407
0.000407
0.000405
0.000412
0.000417
0.000415
0.000392
0.000410
0.000412
0.000397
0.000402
0.000397
0.000400
0.000402
0.000397
0.000400
0.000405
0.000387
0.000382
0.000425
0.000400
0.000397
0.000385
0.000377
0.000407
0.000400
0.000375
0.000422
0.000420
0.000422
0.000405
0.000425
0.000407
0.000405
0.000415
0.000397
0.000402
0.000405
0.000380
0.000405
0.000407
0.000357
0.000400
0.000417
0.000390
0.000395
0.000385
0.000415
0.000445
0.000440
0.000422
0.000457
0.000415
0.000440
0.000442
0.000437
0.000455
0.000442
0.000425
0.000447
0.000432
0.000427
0.000410
0.000452
0.000437
0.000437
0.000410
0.000420
0.000435
0.000445
0.000420
0.000427
0.000407
0.000415
0.000395
0.000405
0.000412
0.000420
0.000365
0.000400
0.000390
0.000367
0.000405
0.000395
0.000397
0.000405
0.000405
0.000417
0.000402
0.000422
0.000410
0.000452
0.000425
0.000440
0.000430
0.000430
0.000445
0.000457
0.000430
0.000460
0.000417
0.000417
0.000462
0.000420
0.000410
0.000467
0.000422
0.000422
0.000425
0.000407
0.000430
0.000437
0.000427
0.000445
0.000407
0.000425
0.000407
0.000417
0.000407
0.000430
0.000387
0.000420
0.000417
0.000395
0.000397
0.000407
0.000392
0.000380
0.000420
0.000417
0.000407
0.000445
0.000430
0.000440
0.000407
0.000412
0.000440
0.000405
0.000395
0.000427
0.000385
0.000427
0.000407
0.000410
0.000390
0.000405
0.000375
0.000400
0.000400
0.000402
0.000395
0.000407
0.000400
0.000410
0.000402
0.000395
0.000420
0.000412
0.000425
0.000425
0.000450
0.000430
0.000430
0.000430
0.000412
0.000442
0.000410
0.000417
0.000407
0.000407
0.000417
0.000415
0.000415
0.000442
0.000415
0.000420
0.000427
0.000427
0.000420
0.000457
0.000432
0.000407
0.000412
0.000432
0.000407
0.000422
0.000412
0.000415
0.000387
0.000390
0.000375
0.000385
0.000390
0.000390
0.000385
0.000395
0.000382
0.000405
0.000387
0.000435
0.000442
0.000422
0.000460
0.000447
0.000442
0.000455
0.000432
0.000472
0.000465
0.000462
0.000460
0.000470
0.000450
0.000462
0.000405
0.000440
0.000430
0.000422
0.000395
0.000407
0.000392
0.000395
0.000377
0.000402
0.000390
0.000422
0.000402
0.000425
0.000442
0.000395
0.000442
0.000435
0.000410
0.000410
0.000412
0.000417
0.000430
0.000427
0.000410
0.000425
0.000412
0.000417
0.000425
0.000410
0.000422
0.000402
0.000395
0.000402
0.000425
0.000397
0.000390
0.000385
0.000390
0.000390
0.000390
0.000407
0.000417
0.000430
0.000427
0.000422
0.000442
0.000472
0.000475
0.000440
0.000475
0.000470
0.000430
0.000457
0.000460
0.000447
0.000447
0.000432
0.000425
0.000405
0.000392
0.000402
0.000415
0.000430
0.000437
0.000447
0.000432
0.000445
0.000440
0.000447
0.000442
0.000447
0.000422
0.000447
0.000430
0.000447
0.000442
0.000442
0.000450
0.000437
0.000432
0.000427
0.000442
0.000430
0.000442
0.000425
0.000405
0.000407
0.000417
0.000427
0.000417
0.000435
0.000410
0.000422
0.000400
0.000390
0.000397
0.000412
0.000407
0.000350
0.000362
0.000397
0.000377
0.000390
0.000382
0.000430
0.000440
0.000442
0.000460
0.000485
0.000440
0.000447
0.000440
0.000405
0.000440
0.000445
0.000437
0.000465
0.000442
0.000437
0.000417
0.000452
0.000457
0.000440
0.000430
0.000422
0.000435
0.000422
0.000422
0.000445
0.000412
0.000450
0.000417
0.000437
0.000470
0.000432
0.000437
0.000410
0.000415
0.000417
0.000395
0.000417
0.000440
0.000427
0.000430
0.000420
0.000417
0.000425
0.000412
0.000422
0.000432
0.000432
0.000445
0.000442
0.000417
0.000425
0.000392
0.000420
0.000425
0.000445
0.000430
0.000442
0.000432
0.000455
0.000415
0.000422
0.000432
0.000435
0.000447
0.000430
0.000450
0.000440
0.000400
0.000407
0.000425
0.000420
0.000410
0.000430
0.000405
0.000407
0.000410
0.000420
0.000427
0.000452
0.000450
0.000450
0.000472
0.000445
0.000425
0.000447
0.000415
0.000397
0.000405
0.000427
0.000420
0.000407
0.000405
0.000440
0.000455
0.000435
0.000430
0.000440
0.000435
0.000442
0.000445
0.000435
0.000435
0.000445
0.000430
0.000442
0.000435
0.000415
0.000425
0.000425
0.000447
0.000442
0.000420
0.000455
0.000437
0.000422
0.000425
0.000440
0.000430
0.000417
0.000447
0.000427
0.000415
0.000422
0.000407
0.000440
0.000447
0.000417
0.000405
0.000385
0.000415
0.000417
0.000387
0.000427
0.000427
0.000430
0.000450
0.000427
0.000440
0.000432
0.000435
0.000430
0.000435
0.000437
0.000442
0.000440
0.000455
0.000480
0.000442
0.000437
0.000440
0.000442
0.000410
0.000455
0.000440
0.000430
0.000430
0.000457
0.000422
0.000462
0.000447
0.000440
0.000455
0.000430
0.000440
0.000462
0.000437
0.000440
0.000417
0.000390
0.000417
0.000410
0.000377
0.000440
0.000425
0.000435
0.000400
0.000445
0.000427
0.000417
0.000457
0.000450
0.000455
0.000455
0.000442
0.000430
0.000407
0.000427
0.000412
0.000417
0.000415
0.000440
0.000400
0.000442
0.000457
0.000440
0.000432
0.000452
0.000460
0.000460
0.000447
0.000457
0.000430
0.000405
0.000412
0.000417
0.000422
0.000410
0.000415
0.000427
0.000452
0.000462
0.000377
0.000442
0.000442
0.000432
0.000412
0.000442
0.000430
0.000415
0.000440
0.000460
0.000455
0.000440
0.000445
0.000465
0.000457
0.000482
0.000462
0.000462
0.000467
0.000430
0.000417
0.000430
0.000465
0.000412
0.000420
0.000462
0.000430
0.000422
0.000407
0.000440
0.000420
0.000367
0.000412
0.000427
0.000422
0.000427
0.000427
0.000417
0.000437
0.000477
0.000410
0.000447
0.000475
0.000432
0.000420
0.000440
0.000445
0.000457
0.000440
0.000460
0.000417
0.000427
0.000412
0.000435
0.000430
0.000432
0.000457
0.000462
0.000457
0.000482
0.000450
0.000470
0.000457
0.000457
0.000435
0.000455
0.000460
0.000430
0.000402
0.000465
0.000467
0.000467
0.000450
0.000455
0.000447
0.000445
0.000457
0.000442
0.000442
0.000462
0.000410
0.000465
0.000467
0.000462
0.000467
0.000460
0.000455
0.000447
0.000435
0.000470
0.000457
0.000450
0.000440
0.000442
0.000435
0.000435
0.000412
0.000452
0.000430
0.000425
0.000427
0.000455
0.000487
0.000477
0.000415
0.000457
0.000485
0.000460
0.000452
0.000467
0.000452
0.000427
0.000355
0.000402
0.000385
0.000422
0.000442
0.000420
0.000440
0.000432
0.000430
0.000457
0.000480
0.000465
0.000440
0.000477
0.000470
0.000470
0.000422
0.000447
0.000450
0.000402
0.000412
0.000447
0.000420
0.000420
0.000427
0.000430
0.000402
0.000445
0.000452
0.000440
0.000462
0.000452
0.000455
0.000475
0.000445
0.000425
0.000445
0.000460
0.000445
0.000460
0.000455
0.000470
0.000432
0.000427
0.000442
0.000437
0.000430
0.000427
0.000437
0.000435
0.000445
0.000417
0.000427
0.000475
0.000447
0.000480
0.000470
0.000467
0.000442
0.000400
0.000417
0.000415
0.000390
0.000405
0.000437
0.000437
0.000420
0.000435
0.000412
0.000452
0.000432
0.000432
0.000440
0.000425
0.000427
0.000420
0.000432
0.000460
0.000435
0.000447
0.000455
0.000452
0.000452
0.000442
0.000472
0.000447
0.000415
0.000437
0.000410
0.000412
0.000395
0.000435
0.000407
0.000427
0.000445
0.000412
0.000437
0.000437
0.000445
0.000425
0.000435
0.000480
0.000427
0.000440
0.000437
0.000437
0.000415
0.000432
0.000417
0.000435
0.000427
0.000442
0.000415
0.000460
0.000432
0.000435
0.000435
0.000417
0.000450
0.000422
0.000390
0.000435
0.000430
0.000437
0.000422
0.000457
0.000430
0.000447
0.000462
0.000437
0.000455
0.000480
0.000417
0.000427
0.000415
0.000430
0.000412
0.000415
0.000435
0.000422
0.000430
0.000440
0.000415
0.000397
0.000400
0.000390
0.000380
0.000415
0.000430
0.000415
0.000412
0.000447
0.000412
0.000440
0.000417
0.000462
0.000425
0.000460
0.000455
0.000452
0.000415
0.000460
0.000452
0.000437
0.000440
0.000457
0.000452
0.000447
0.000472
0.000465
0.000450
0.000500
0.000477
0.000480
0.000462
0.000470
0.000427
0.000442
0.000480
0.000452
0.000452
0.000492
0.000455
0.000445
0.000447
0.000457
0.000407
0.000405
0.000430
0.000427
0.000417
0.000460
0.000455
0.000460
0.000475
0.000462
0.000445
0.000472
0.000462
0.000452
0.000412
0.000440
0.000432
0.000395
0.000422
0.000415
0.000415
0.000437
0.000435
0.000442
0.000420
0.000457
0.000457
0.000425
0.000437
0.000445
0.000440
0.000452
0.000465
0.000460
0.000437
0.000465
0.000447
0.000462
0.000450
0.000445
0.000462
0.000437
0.000452
0.000427
0.000417
0.000452
0.000422
0.000452
0.000425
0.000480
0.000417
0.000442
0.000470
0.000457
0.000485
0.000505
0.000495
0.000482
0.000455
0.000467
0.000412
0.000417
0.000437
0.000430
0.000432
0.000457
0.000440
0.000422
0.000450
0.000455
0.000430
0.000462
0.000455
0.000447
0.000427
0.000437
0.000452
0.000407
0.000405
0.000452
0.000392
0.000440
0.000452
0.000437
0.000437
0.000475
0.000445
0.000435
0.000455
0.000465
0.000432
0.000442
0.000462
0.000442
0.000415
0.000432
0.000435
0.000435
0.000430
0.000485
0.000430
0.000432
0.000412
0.000407
0.000387
0.000422
0.000380
0.000412
0.000430
0.000422
0.000420
0.000437
0.000462
0.000445
0.000430
0.000447
0.000435
0.000432
0.000410
0.000450
0.000437
0.000432
0.000435
0.000447
0.000465
0.000457
0.000432
0.000440
0.000440
0.000437
0.000417
0.000437
0.000442
0.000440
0.000405
0.000440
0.000462
0.000440
0.000432
0.000470
0.000442
0.000432
0.000455
0.000457
0.000430
0.000447
0.000442
0.000437
0.000460
0.000445
0.000432
0.000475
0.000472
0.000470
0.000450
0.000477
0.000437
0.000445
0.000440
0.000472
0.000467
0.000435
0.000445
0.000442
0.000387
0.000412
0.000397
0.000397
0.000412
0.000445
0.000450
0.000465
0.000457
0.000485
0.000422
0.000455
0.000477
0.000435
0.000442
0.000475
0.000447
0.000410
0.000462
0.000425
0.000405
0.000410
0.000440
0.000422
0.000455
0.000495
0.000417
0.000437
0.000440
0.000435
0.000435
0.000480
0.000460
0.000445
0.000432
0.000465
0.000425
0.000407
0.000427
0.000430
0.000397
0.000452
0.000435
0.000427
0.000425
0.000452
0.000420
0.000440
0.000452
0.000440
0.000442
0.000457
0.000460
0.000442
0.000427
0.000442
0.000455
0.000430
0.000450
0.000437
0.000437
0.000440
0.000460
0.000467
0.000447
0.000455
0.000442
0.000450
0.000445
0.000462
0.000422
0.000450
0.000475
0.000420
0.000417
0.000450
0.000425
0.000440
0.000430
0.000470
0.000442
0.000490
0.000457
0.000445
0.000437
0.000477
0.000455
0.000470
0.000500
0.000472
0.000475
0.000480
0.000462
0.000472
0.000425
0.000460
0.000442
0.000455
0.000462
0.000475
0.000425
0.000447
0.000437
0.000452
0.000405
0.000447
0.000427
0.000467
0.000480
0.000470
0.000415
0.000480
0.000465
0.000467
0.000455
0.000482
0.000477
0.000445
0.000447
0.000452
0.000412
0.000452
0.000437
0.000427
0.000437
0.000457
0.000420
0.000442
0.000442
0.000457
0.000432
0.000487
0.000470
0.000477
0.000417
0.000477
0.000435
0.000407
0.000445
0.000425
0.000432
0.000447
0.000445
0.000440
0.000445
0.000450
0.000430
0.000422
0.000432
0.000452
0.000415
0.000455
0.000455
0.000447
0.000435
0.000462
0.000460
0.000445
0.000452
0.000457
0.000457
0.000467
0.000452
0.000482
0.000442
0.000457
0.000460
0.000417
0.000445
0.000462
0.000435
0.000475
0.000455
0.000452
0.000447
0.000450
0.000445
0.000455
0.000455
0.000462
0.000465
0.000482
0.000462
0.000457
0.000445
0.000467
0.000442
0.000467
0.000457
0.000432
0.000410
0.000445
0.000437
0.000437
0.000445
0.000440
0.000432
0.000427
0.000440
0.000435
0.000437
0.000452
0.000472
0.000465
0.000457
0.000477
0.000432
0.000452
0.000440
0.000445
0.000435
0.000457
0.000450
0.000442
0.000422
0.000472
0.000420
0.000447
0.000432
0.000442
0.000437
0.000452
0.000440
0.000470
0.000447
0.000475
0.000442
0.000445
0.000442
0.000442
0.000435
0.000427
0.000447
0.000420
0.000437
0.000455
0.000440
0.000435
0.000425
0.000460
0.000442
0.000435
0.000462
0.000465
0.000440
0.000462
0.000452
0.000462
0.000482
0.000450
0.000427
0.000425
0.000435
0.000440
0.000417
0.000460
0.000425
0.000437
0.000420
0.000465
0.000437
0.000435
0.000447
0.000447
0.000425
0.000450
0.000475
0.000462
0.000445
0.000475
0.000432
0.000432
0.000460
0.000450
0.000422
0.000450
0.000447
0.000435
0.000445
0.000447
0.000430
0.000432
0.000430
0.000457
0.000410
0.000445
0.000445
0.000425
0.000440
0.000450
0.000427
0.000420
0.000445
0.000447
0.000425
0.000467
0.000470
0.000475
0.000442
0.000470
0.000475
0.000462
0.000435
0.000472
0.000452
0.000475
0.000475
0.000462
0.000460
0.000467
0.000447
0.000462
0.000467
0.000477
0.000450
0.000455
0.000467
0.000447
0.000425
0.000455
0.000435
0.000465
0.000457
0.000480
0.000487
0.000467
0.000472
0.000467
0.000440
0.000460
0.000440
0.000462
0.000465
0.000465
0.000432
0.000460
0.000425
0.000430
0.000417
0.000455
0.000460
0.000440
0.000447
0.000462
0.000432
0.000470
0.000450
0.000457
0.000502
0.000465
0.000445
0.000475
0.000470
0.000470
0.000440
0.000435
0.000465
0.000460
0.000435
0.000432
0.000440
0.000430
0.000422
0.000447
0.000432
0.000452
0.000442
0.000465
0.000455
0.000447
0.000480
0.000475
0.000477
0.000472
0.000450
0.000477
0.000432
0.000447
0.000462
0.000430
0.000442
0.000470
0.000422
0.000442
0.000440
0.000425
0.000445
0.000457
0.000445
0.000462
0.000445
0.000482
0.000475
0.000470
0.000472
0.000467
0.000445
0.000460
0.000475
0.000465
0.000445
0.000457
0.000457
0.000437
0.000435
0.000470
0.000447
0.000450
0.000442
0.000470
0.000460
0.000475
0.000472
0.000462
0.000445
0.000477
0.000462
0.000465
0.000482
0.000447
0.000477
0.000455
0.000455
0.000470
0.000440
0.000482
0.000467
0.000445
0.000472
0.000470
0.000450
0.000445
0.000452
0.000457
0.000460
0.000460
0.000467
0.000467
0.000477
0.000460
0.000480
0.000467
0.000460
0.000482
0.000472
0.000465
0.000430
0.000457
0.000430
0.000440
0.000422
0.000460
0.000462
0.000445
0.000460
0.000470
0.000482
0.000487
0.000492
0.000472
0.000477
0.000490
0.000455
0.000487
0.000475
0.000457
0.000450
0.000450
0.000445
0.000447
0.000430
0.000445
0.000452
0.000465
0.000452
0.000475
0.000457
0.000457
0.000452
0.000455
0.000462
0.000475
0.000452
0.000462
0.000480
0.000490
0.000445
0.000465
0.000477
0.000460
0.000472
0.000467
0.000440
0.000440
0.000427
0.000450
0.000437
0.000482
0.000465
0.000470
0.000467
0.000462
0.000422
0.000430
0.000465
0.000457
0.000440
0.000462
0.000482
0.000457
0.000472
0.000472
0.000455
0.000487
0.000450
0.000480
0.000435
0.000437
0.000442
0.000435
0.000422
0.000457
0.000435
0.000430
0.000467
0.000467
0.000425
0.000455
0.000450
0.000442
0.000477
0.000480
0.000465
0.000457
0.000460
0.000440
0.000425
0.000455
0.000465
0.000447
0.000455
0.000460
0.000440
0.000477
0.000455
0.000450
0.000457
0.000485
0.000455
0.000487
0.000467
0.000487
0.000467
0.000435
0.000450
0.000460
0.000462
0.000460
0.000475
0.000447
0.000450
0.000472
0.000425
0.000467
0.000470
0.000447
0.000425
0.000485
0.000475
0.000447
0.000462
0.000482
0.000462
0.000475
0.000470
0.000490
0.000480
0.000457
0.000470
0.000475
0.000447
0.000480
0.000485
0.000457
0.000477
0.000497
0.000412
0.000465
0.000437
0.000440
0.000435
0.000460
0.000415
0.000460
0.000455
0.000422
0.000425
0.000460
0.000457
0.000457
0.000455
0.000502
0.000472
0.000470
0.000480
0.000475
0.000457
0.000470
0.000475
0.000452
0.000450
0.000447
0.000435
0.000455
0.000432
0.000415
0.000455
0.000447
0.000445
0.000445
0.000442
0.000452
0.000430
0.000447
0.000492
0.000480
0.000452
0.000477
0.000465
0.000472
0.000440
0.000457
0.000442
0.000447
0.000432
0.000450
0.000440
0.000457
0.000417
0.000440
0.000412
0.000457
0.000425
0.000442
0.000465
0.000467
0.000440
0.000475
0.000502
0.000492
0.000470
0.000485
0.000457
0.000467
0.000452
0.000475
0.000460
0.000412
0.000430
0.000437
0.000427
0.000467
0.000430
0.000452
0.000425
0.000440
0.000465
0.000445
0.000467
0.000450
0.000432
0.000465
0.000452
0.000455
0.000470
0.000470
0.000482
0.000472
0.000465
0.000480
0.000460
0.000462
0.000437
0.000435
0.000472
0.000457
0.000440
0.000457
0.000450
0.000460
0.000470
0.000477
0.000457
0.000470
0.000467
0.000447
0.000437
0.000477
0.000465
0.000477
0.000460
0.000457
0.000480
0.000452
0.000462
0.000435
0.000437
0.000445
0.000440
0.000425
0.000440
0.000475
0.000450
0.000452
0.000425
0.000447
0.000460
0.000450
0.000455
0.000470
0.000462
0.000475
0.000445
0.000460
0.000455
0.000485
0.000447
0.000452
0.000450
0.000452
0.000440
0.000452
0.000432
0.000455
0.000452
0.000470
0.000465
0.000447
0.000447
0.000460
0.000470
0.000470
0.000450
0.000455
0.000472
0.000452
0.000435
0.000435
0.000437
0.000455
0.000415
0.000450
0.000435
0.000415
0.000447
0.000447
0.000450
0.000455
0.000455
0.000470
0.000445
0.000470
0.000477
0.000450
0.000472
0.000487
0.000450
0.000490
0.000495
0.000450
0.000437
0.000477
0.000470
0.000440
0.000450
0.000472
0.000450
0.000455
0.000440
0.000465
0.000427
0.000457
0.000452
0.000475
0.000447
0.000467
0.000452
0.000452
0.000477
0.000485
0.000422
0.000480
0.000462
0.000457
0.000477
0.000475
0.000457
0.000450
0.000480
0.000485
0.000477
0.000487
0.000465
0.000465
0.000465
0.000472
0.000465
0.000467
0.000457
0.000482
0.000442
0.000492
0.000480
0.000475
0.000472
0.000467
0.000445
0.000460
0.000447
0.000467
0.000455
0.000452
0.000480
0.000445
0.000485
0.000490
0.000440
0.000450
0.000482
0.000452
0.000465
0.000480
0.000465
0.000462
0.000462
0.000460
0.000472
0.000445
0.000457
0.000462
0.000455
0.000470
0.000447
0.000477
0.000472
0.000477
0.000477
0.000467
0.000470
0.000442
0.000445
0.000457
0.000467
0.000452
0.000462
0.000457
0.000480
0.000472
0.000445
0.000455
0.000447
0.000435
0.000457
0.000475
0.000455
0.000485
0.000460
0.000462
0.000467
0.000480
0.000447
0.000462
0.000470
0.000470
0.000462
0.000470
0.000475
0.000432
0.000437
0.000465
0.000445
0.000465
0.000467
0.000475
0.000435
0.000462
0.000452
0.000450
0.000457
0.000457
0.000440
0.000477
0.000487
0.000462
0.000472
0.000475
0.000465
0.000467
0.000455
0.000477
0.000467
0.000455
0.000465
0.000437
0.000435
0.000442
0.000457
0.000442
0.000465
0.000450
0.000442
0.000475
0.000447
0.000470
0.000442
0.000490
0.000460
0.000445
0.000475
0.000452
0.000455
0.000457
0.000440
0.000482
0.000445
0.000462
0.000465
0.000470
0.000445
0.000482
0.000440
0.000452
0.000447
0.000425
0.000442
0.000462
0.000452
0.000455
0.000460
0.000457
0.000447
0.000460
0.000452
0.000460
0.000452
0.000430
0.000467
0.000452
0.000472
0.000485
0.000442
0.000467
0.000452
0.000450
0.000460
0.000475
0.000462
0.000485
0.000440
0.000455
0.000460
0.000467
0.000457
0.000475
0.000432
0.000442
0.000452
0.000442
0.000447
0.000450
0.000420
0.000440
0.000472
0.000445
0.000477
0.000480
0.000452
0.000470
0.000427
0.000452
0.000470
0.000462
0.000470
0.000455
0.000445
0.000445
0.000455
0.000432
0.000455
0.000445
0.000425
0.000422
0.000467
0.000477
0.000457
0.000482
0.000470
0.000475
0.000445
0.000477
0.000430
0.000455
0.000410
0.000445
0.000427
0.000452
0.000445
0.000487
0.000465
0.000477
0.000447
0.000472
0.000482
0.000445
0.000460
0.000485
0.000445
0.000475
0.000472
0.000450
0.000465
0.000440
0.000417
0.000447
0.000442
0.000445
0.000457
0.000457
0.000455
0.000470
0.000467
0.000465
0.000455
0.000475
0.000465
0.000512
0.000470
0.000470
0.000465
0.000447
0.000455
0.000470
0.000460
0.000482
0.000510
0.000462
0.000475
0.000495
0.000490
0.000485
0.000462
0.000485
0.000507
0.000497
0.000462
0.000497
0.000490
0.000482
0.000500
0.000482
0.000470
0.000495
0.000467
0.000472
0.000485
0.000460
0.000462
0.000442
0.000440
0.000457
0.000460
0.000440
0.000475
0.000427
0.000435
0.000452
0.000442
0.000440
0.000450
0.000457
0.000430
0.000462
0.000432
0.000470
0.000450
0.000470
0.000430
0.000475
0.000455
0.000430
0.000445
0.000452
0.000455
0.000452
0.000452
0.000495
0.000480
0.000475
0.000467
0.000472
0.000460
0.000465
0.000450
0.000485
0.000492
0.000487
0.000480
0.000462
0.000447
0.000452
0.000422
0.000432
0.000470
0.000447
0.000460
0.000472
0.000457
0.000472
0.000457
0.000470
0.000442
0.000485
0.000440
0.000462
0.000490
0.000472
0.000472
0.000480
0.000492
0.000480
0.000447
0.000450
0.000457
0.000445
0.000442
0.000442
0.000450
0.000457
0.000437
0.000462
0.000460
0.000462
0.000457
0.000480
0.000487
0.000455
0.000455
0.000497
0.000472
0.000487
0.000447
0.000462
0.000467
0.000462
0.000420
0.000432
0.000450
0.000420
0.000430
0.000447
0.000477
0.000455
0.000460
0.000480
0.000460
0.000495
0.000470
0.000487
0.000485
0.000475
0.000450
0.000470
0.000455
0.000470
0.000457
0.000475
0.000457
0.000477
0.000482
0.000447
0.000477
0.000487
0.000440
0.000460
0.000472
0.000447
0.000432
0.000462
0.000427
0.000472
0.000452
0.000455
0.000472
0.000470
0.000445
0.000470
0.000445
0.000465
0.000482
0.000470
0.000447
0.000447
0.000445
0.000422
0.000445
0.000455
0.000422
0.000452
0.000445
0.000445
0.000445
0.000452
0.000452
0.000462
0.000470
0.000480
0.000470
0.000465
0.000467
0.000445
0.000462
0.000482
0.000465
0.000432
0.000450
0.000457
0.000447
0.000475
0.000442
0.000477
0.000465
0.000470
0.000445
0.000452
0.000440
0.000447
0.000472
0.000430
0.000430
0.000455
0.000452
0.000467
0.000462
0.000447
0.000487
0.000477
0.000470
0.000485
0.000462
0.000465
0.000435
0.000445
0.000445
0.000457
0.000432
0.000457
0.000467
0.000460
0.000457
0.000475
0.000475
0.000465
0.000470
0.000485
0.000467
0.000475
0.000465
0.000492
0.000450
0.000450
0.000480
0.000467
0.000472
0.000485
0.000472
0.000460
0.000450
0.000467
0.000455
0.000457
0.000470
0.000470
0.000480
0.000500
0.000460
0.000467
0.000440
0.000480
0.000455
0.000457
0.000450
0.000470
0.000437
0.000445
0.000462
0.000437
0.000445
0.000457
0.000452
0.000472
0.000467
0.000470
0.000485
0.000470
0.000485
0.000475
0.000467
0.000455
0.000462
0.000457
0.000457
0.000447
0.000420
0.000462
0.000460
0.000455
0.000490
0.000475
0.000490
0.000502
0.000490
0.000480
0.000477
0.000477
0.000487
0.000495
0.000480
0.000492
0.000470
0.000455
0.000430
0.000445
0.000415
0.000452
0.000445
0.000445
0.000460
0.000462
0.000460
0.000437
0.000477
0.000475
0.000457
0.000462
0.000467
0.000490
0.000440
0.000475
0.000440
0.000430
0.000462
0.000430
0.000457
0.000455
0.000452
0.000450
0.000435
0.000462
0.000445
0.000447
0.000472
0.000490
0.000445
0.000457
0.000457
0.000462
0.000422
0.000462
0.000460
0.000452
0.000442
0.000475
0.000462
0.000465
0.000445
0.000447
0.000472
0.000485
0.000457
0.000452
0.000475
0.000490
0.000470
0.000472
0.000480
0.000467
0.000455
0.000487
0.000467
0.000467
0.000465
0.000457
0.000452
0.000472
0.000437
0.000465
0.000465
0.000470
0.000445
0.000445
0.000487
0.000485
0.000465
0.000467
0.000485
0.000447
0.000480
0.000480
0.000452
0.000440
0.000422
0.000460
0.000432
0.000435
0.000460
0.000447
0.000470
0.000467
0.000472
0.000457
0.000465
0.000480
0.000465
0.000465
0.000490
0.000462
0.000450
0.000502
0.000475
0.000465
0.000475
0.000480
0.000445
0.000465
0.000465
0.000457
0.000450
0.000485
0.000457
0.000460
0.000462
0.000455
0.000445
0.000472
0.000470
0.000472
0.000455
0.000467
0.000457
0.000470
0.000465
0.000480
0.000477
0.000470
0.000467
0.000465
0.000437
0.000462
0.000475
0.000460
0.000467
0.000470
0.000440
0.000460
0.000472
0.000437
0.000440
0.000462
0.000455
0.000452
0.000437
0.000465
0.000450
0.000462
0.000450
0.000445
0.000435
0.000465
0.000462
0.000450
0.000462
0.000472
0.000457
0.000467
0.000475
0.000462
0.000445
0.000465
0.000462
0.000450
0.000465
0.000470
0.000465
0.000460
0.000442
0.000450
0.000447
0.000475
0.000490
0.000462
0.000455
0.000487
0.000492
0.000485
0.000472
0.000460
0.000457
0.000470
0.000482
0.000460
0.000465
0.000480
0.000435
0.000465
0.000465
0.000467
0.000472
0.000457
0.000465
0.000422
0.000437
0.000475
0.000450
0.000450
0.000497
0.000460
0.000450
0.000475
0.000462
0.000465
0.000455
0.000465
0.000435
0.000470
0.000470
0.000455
0.000467
0.000480
0.000467
0.000492
0.000467
0.000495
0.000457
0.000472
0.000485
0.000470
0.000452
0.000457
0.000475
0.000462
0.000440
0.000452
0.000465
0.000447
0.000440
0.000452
0.000440
0.000427
0.000457
0.000427
0.000465
0.000450
0.000440
0.000470
0.000462
0.000452
0.000450
0.000450
0.000480
0.000477
0.000452
0.000480
0.000457
0.000475
0.000470
0.000472
0.000462
0.000477
0.000462
0.000475
0.000480
0.000470
0.000435
0.000462
0.000470
0.000460
0.000465
0.000475
0.000465
0.000475
0.000487
0.000477
0.000470
0.000467
0.000445
0.000460
0.000447
0.000482
0.000465
0.000465
0.000455
0.000470
0.000440
0.000452
0.000445
0.000435
0.000447
0.000472
0.000460
0.000475
0.000457
0.000485
0.000462
0.000472
0.000475
0.000490
0.000472
0.000470
0.000482
0.000477
0.000442
0.000467
0.000420
0.000442
0.000465
0.000432
0.000422
0.000477
0.000435
0.000462
0.000460
0.000492
0.000462
0.000477
0.000475
0.000467
0.000467
0.000457
0.000457
0.000467
0.000465
0.000502
0.000470
0.000485
0.000485
0.000487
0.000462
0.000502
0.000482
0.000455
0.000497
0.000452
0.000470
0.000447
0.000430
0.000477
0.000452
0.000457
0.000465
0.000455
0.000462
0.000470
0.000467
0.000450
0.000470
0.000447
0.000460
0.000467
0.000490
0.000490
0.000492
0.000465
0.000457
0.000460
0.000470
0.000472
0.000440
0.000450
0.000455
0.000435
0.000455
0.000477
0.000450
0.000462
0.000480
0.000460
0.000457
0.000512
0.000467
0.000452
0.000460
0.000485
0.000462
0.000495
0.000472
0.000472
0.000470
0.000470
0.000485
0.000470
0.000482
0.000500
0.000460
0.000482
0.000487
0.000492
0.000465
0.000480
0.000457
0.000467
0.000480
0.000447
0.000465
0.000447
0.000450
0.000470
0.000457
0.000470
0.000445
0.000420
0.000430
0.000437
0.000430
0.000447
0.000452
0.000450
0.000452
0.000462
0.000465
0.000432
0.000460
0.000490
0.000470
0.000495
0.000485
0.000502
0.000475
0.000480
0.000442
0.000447
0.000460
0.000480
0.000430
0.000462
0.000482
0.000455
0.000440
0.000452
0.000470
0.000442
0.000452
0.000492
0.000467
0.000470
0.000477
0.000457
0.000480
0.000467
0.000447
0.000457
0.000457
0.000460
0.000432
0.000427
0.000445
0.000422
0.000412
0.000440
0.000462
0.000447
0.000440
0.000445
0.000450
0.000470
0.000460
0.000472
0.000485
0.000497
0.000467
0.000475
0.000477
0.000462
0.000452
0.000435
0.000497
0.000447
0.000465
0.000467
0.000432
0.000430
0.000412
0.000465
0.000432
0.000442
0.000485
0.000465
0.000480
0.000470
0.000475
0.000480
0.000495
0.000492
0.000465
0.000480
0.000505
0.000462
0.000450
0.000487
0.000467
0.000457
0.000460
0.000450
0.000440
0.000462
0.000440
0.000477
0.000477
0.000477
0.000492
0.000500
0.000487
0.000487
0.000467
0.000452
0.000497
0.000460
0.000460
0.000490
0.000455
0.000435
0.000435
0.000462
0.000435
0.000465
0.000462
0.000482
0.000467
0.000475
0.000460
0.000455
0.000465
0.000465
0.000450
0.000485
0.000472
0.000505
0.000452
0.000485
0.000485
0.000455
0.000465
0.000500
0.000452
0.000472
0.000467
0.000460
0.000407
0.000450
0.000417
0.000435
0.000467
0.000450
0.000425
0.000440
0.000450
0.000480
0.000457
0.000480
0.000490
0.000447
0.000457
0.000500
0.000475
0.000462
0.000472
0.000465
0.000465
0.000487
0.000472
0.000485
0.000470
0.000462
0.000462
0.000447
0.000462
0.000487
0.000432
0.000480
0.000495
0.000450
0.000462
0.000510
0.000470
0.000492
0.000507
0.000482
0.000485
0.000487
0.000500
0.000497
0.000452
0.000500
0.000470
0.000482
0.000475
0.000502
0.000457
0.000460
0.000477
0.000465
0.000455
0.000495
0.000455
0.000477
0.000477
0.000487
0.000462
0.000477
0.000472
0.000470
0.000457
0.000485
0.000475
0.000457
0.000472
0.000470
0.000460
0.000455
0.000462
0.000455
0.000430
0.000467
0.000442
0.000462
0.000462
0.000462
0.000472
0.000450
0.000455
0.000467
0.000470
0.000500
0.000495
0.000470
0.000460
0.000470
0.000447
0.000480
0.000485
0.000460
0.000440
0.000472
0.000465
0.000480
0.000457
0.000485
0.000470
0.000465
0.000465
0.000480
0.000472
0.000485
0.000480
0.000462
0.000465
0.000462
0.000442
0.000472
0.000480
0.000457
0.000457
0.000455
0.000445
0.000467
0.000445
0.000487
0.000487
0.000465
0.000462
0.000482
0.000462
0.000482
0.000465
0.000482
0.000500
0.000505
0.000465
0.000475
0.000480
0.000480
0.000460
0.000467
0.000455
0.000445
0.000457
0.000450
0.000442
0.000447
0.000430
0.000435
0.000462
0.000460
0.000470
0.000477
0.000480
0.000487
0.000465
0.000482
0.000510
0.000460
0.000482
0.000500
0.000475
0.000477
0.000477
0.000502
0.000495
0.000485
0.000480
0.000477
0.000445
0.000467
0.000432
0.000485
0.000470
0.000472
0.000457
0.000500
0.000475
0.000465
0.000445
0.000472
0.000475
0.000440
0.000455
0.000467
0.000430
0.000462
0.000480
0.000472
0.000430
0.000457
0.000457
0.000460
0.000457
0.000462
0.000440
0.000475
0.000502
0.000462
0.000442
0.000480
0.000460
0.000460
0.000472
0.000470
0.000470
0.000480
0.000477
0.000477
0.000467
0.000475
0.000475
0.000477
0.000467
0.000470
0.000440
0.000465
0.000475
0.000455
0.000432
0.000482
0.000440
0.000445
0.000457
0.000492
0.000480
0.000492
0.000482
0.000460
0.000462
0.000510
0.000447
0.000462
0.000472
0.000467
0.000452
0.000460
0.000485
0.000470
0.000450
0.000507
0.000487
0.000487
0.000482
0.000492
0.000495
0.000497
0.000487
0.000465
0.000472
0.000505
0.000487
0.000482
0.000500
0.000482
0.000460
0.000472
0.000500
0.000447
0.000457
0.000470
0.000457
0.000470
0.000455
0.000467
0.000470
0.000452
0.000477
0.000462
0.000475
0.000520
0.000465
0.000490
0.000487
0.000505
0.000470
0.000492
0.000507
0.000457
0.000457
0.000507
0.000480
0.000470
0.000477
0.000470
0.000477
0.000472
0.000447
0.000465
0.000455
0.000470
0.000445
0.000455
0.000452
0.000482
0.000452
0.000462
0.000495
0.000475
0.000447
0.000500
0.000487
0.000452
0.000492
0.000500
0.000462
0.000492
0.000450
0.000440
0.000452
0.000440
0.000432
0.000447
0.000450
0.000480
0.000450
0.000480
0.000475
0.000455
0.000465
0.000470
0.000485
0.000465
0.000470
0.000477
0.000457
0.000497
0.000490
0.000487
0.000450
0.000470
0.000440
0.000450
0.000452
0.000465
0.000470
0.000470
0.000475
0.000482
0.000447
0.000477
0.000457
0.000495
0.000502
0.000505
0.000480
0.000490
0.000500
0.000492
0.000457
0.000480
0.000477
0.000467
0.000480
0.000452
0.000447
0.000447
0.000442
0.000470
0.000450
0.000465
0.000457
0.000452
0.000452
0.000462
0.000467
0.000482
0.000482
0.000487
0.000467
0.000492
0.000492
0.000482
0.000482
0.000457
0.000462
0.000455
0.000472
0.000477
0.000460
0.000495
0.000450
0.000470
0.000465
0.000457
0.000440
0.000470
0.000457
0.000437
0.000430
0.000462
0.000442
0.000460
0.000487
0.000470
0.000470
0.000465
0.000487
0.000470
0.000465
0.000485
0.000455
0.000457
0.000455
0.000472
0.000460
0.000470
0.000465
0.000477
0.000445
0.000477
0.000437
0.000450
0.000470
0.000465
0.000455
0.000475
0.000492
0.000475
0.000490
0.000477
0.000480
0.000497
0.000462
0.000512
0.000457
0.000477
0.000475
0.000467
0.000437
0.000470
0.000462
0.000442
0.000467
0.000495
0.000442
0.000465
0.000517
0.000497
0.000455
0.000495
0.000497
0.000470
0.000462
0.000497
0.000430
0.000427
0.000465
0.000445
0.000452
0.000467
0.000472
0.000452
0.000460
0.000490
0.000465
0.000455
0.000502
0.000492
0.000455
0.000492
0.000475
0.000482
0.000470
0.000520
0.000480
0.000492
0.000510
0.000475
0.000462
0.000482
0.000485
0.000467
0.000457
0.000490
0.000447
0.000497
0.000465
0.000500
0.000450
0.000462
0.000505
0.000477
0.000455
0.000505
0.000477
0.000467
0.000500
0.000500
0.000487
0.000517
0.000472
0.000477
0.000472
0.000477
0.000460
0.000470
0.000465
0.000480
0.000460
0.000450
0.000472
0.000475
0.000435
0.000470
0.000475
0.000472
0.000480
0.000477
0.000475
0.000457
0.000475
0.000475
0.000455
0.000485
0.000467
0.000467
0.000477
0.000472
0.000442
0.000460
0.000475
0.000487
0.000435
0.000475
0.000455
0.000450
0.000440
0.000460
0.000457
0.000455
0.000457
0.000447
0.000467
0.000462
0.000467
0.000490
0.000477
0.000482
0.000470
0.000492
0.000475
0.000475
0.000470
0.000460
0.000452
0.000472
0.000465
0.000497
0.000470
0.000492
0.000477
0.000480
0.000457
0.000445
0.000422
0.000465
0.000485
0.000447
0.000457
0.000475
0.000462
0.000460
0.000450
0.000482
0.000462
0.000440
0.000485
0.000485
0.000462
0.000472
0.000467
0.000475
0.000470
0.000465
0.000427
0.000472
0.000462
0.000470
0.000472
0.000475
0.000510
0.000492
0.000477
0.000495
0.000467
0.000485
0.000455
t0(sec) = 0.000000E+0
dt(sec) = 4.000000E-10
F4:INSP "
DESCRIPTOR_NAME    : WAVEDESC           
TEMPLATE_NAME      : LECROY_2_3         
COMM_TYPE          : word               
COMM_ORDER         : HIFIRST            
WAVE_DESCRIPTOR    : 346                
USER_TEXT          : 0                  
RES_DESC1          : 0                  
TRIGTIME_ARRAY     : 0                  
RIS_TIME_ARRAY     : 0                  
RES_ARRAY1         : 0                  
WAVE_ARRAY_1       : 9932               
WAVE_ARRAY_2       : 0                  
RES_ARRAY2         : 0                  
RES_ARRAY3         : 0                  
INSTRUMENT_NAME    : LECROYHDO6104      
INSTRUMENT_NUMBER  : 6308               
TRACE_LABEL        :                    
RESERVED1          : 4966               
RESERVED2          : 0                  
WAVE_ARRAY_COUNT   : 4966               
PNTS_PER_SCREEN    : 5000               
FIRST_VALID_PNT    : 0                  
LAST_VALID_PNT     : 4965               
FIRST_POINT        : 0                  
SPARSING_FACTOR    : 1                  
SEGMENT_INDEX      : 0                  
SUBARRAY_COUNT     : 1                  
SWEEPS_PER_ACQ     : 200                
POINTS_PER_PAIR    : 0                  
PAIR_OFFSET        : 0                  
VERTICAL_GAIN      : 2.6238e-006        
VERTICAL_OFFSET    : 6.8001e-002        
MAX_VALUE          : 2.7366e+004        
MIN_VALUE          : 1.2377e+004        
NOMINAL_BITS       : 16                 
NOM_SUBARRAY_COUNT : 1                  
HORIZ_INTERVAL     : 4.0000e-010        
HORIZ_OFFSET       : -2.00000000e-007   
PIXEL_OFFSET       : -2.14000000e-007   
VERTUNIT           : Unit Name = V
HORUNIT            : Unit Name = S
HORIZ_UNCERTAINTY  : 1.0000e-012        
TRIGGER_TIME       : Date = APR 17, 2024, Time = 19:30:19.806297508
ACQ_DURATION       : 1.0064e+001        
RECORD_TYPE        : single_sweep       
PROCESSING_DONE    : no_processing      
RESERVED5          : 0                  
RIS_SWEEPS         : 1                  
TIMEBASE           : 200_ns/div         
VERT_COUPLING      : DC_50_Ohms         
PROBE_ATT          : 1.0000e+000        
FIXED_VERT_GAIN    : 5_mV/div           
BANDWIDTH_LIMIT    : off                
VERTICAL_VERNIER   : 1.0000e+000        
ACQ_VERT_OFFSET    : 0.0000e+000        
WAVE_SOURCE        : UNKNOWN            
"
0.000538
0.000504
0.000512
0.000561
0.000577
0.000559
0.000577
0.000580
0.000561
0.000564
0.000596
0.000590
0.000577
0.000609
0.000593
0.000617
0.000648
0.000635
0.000609
0.000593
0.000564
0.000622
0.000611
0.000598
0.000596
0.000588
0.000559
0.000546
0.000554
0.000564
0.000543
0.000538
0.000598
0.000564
0.000569
0.000606
0.000609
0.000598
0.000617
0.000617
0.000614
0.000624
0.000603
0.000588
0.000598
0.000588
0.000609
0.000596
0.000582
0.000582
0.000590
0.000580
0.000627
0.000590
0.000601
0.000598
0.000580
0.000554
0.000593
0.000606
0.000588
0.000569
0.000590
0.000603
0.000577
0.000622
0.000606
0.000577
0.000601
0.000611
0.000582
0.000575
0.000543
0.000525
0.000525
0.000535
0.000551
0.000577
0.000519
0.000491
0.000525
0.000567
0.000585
0.000580
0.000614
0.000627
0.000582
0.000609
0.000619
0.000603
0.000585
0.000561
0.000585
0.000525
0.000525
0.000580
0.000580
0.000569
0.000561
0.000580
0.000575
0.000577
0.000606
0.000580
0.000596
0.000614
0.000627
0.000601
0.000598
0.000590
0.000601
0.000603
0.000582
0.000588
0.000603
0.000614
0.000630
0.000593
0.000585
0.000590
0.000588
0.000606
0.000588
0.000609
0.000624
0.000609
0.000606
0.000577
0.000546
0.000556
0.000585
0.000630
0.000577
0.000577
0.000582
0.000561
0.000580
0.000603
0.000603
0.000593
0.000590
0.000593
0.000617
0.000601
0.000622
0.000638
0.000614
0.000596
0.000598
0.000572
0.000601
0.000598
0.000577
0.000561
0.000575
0.000577
0.000569
0.000572
0.000603
0.000596
0.000564
0.000609
0.000590
0.000561
0.000546
0.000556
0.000564
0.000575
0.000590
0.000590
0.000611
0.000603
0.000614
0.000575
0.000598
0.000590
0.000580
0.000619
0.000645
0.000619
0.000622
0.000611
0.000603
0.000593
0.000588
0.000614
0.000585
0.000572
0.000585
0.000598
0.000614
0.000590
0.000611
0.000609
0.000596
0.000577
0.000561
0.000540
0.000575
0.000606
0.000596
0.000611
0.000606
0.000582
0.000569
0.000603
0.000593
0.000577
0.000575
0.000504
0.000498
0.000546
0.000572
0.000590
0.000593
0.000603
0.000617
0.000603
0.000624
0.000596
0.000601
0.000609
0.000638
0.000606
0.000632
0.000598
0.000577
0.000561
0.000593
0.000588
0.000585
0.000569
0.000543
0.000575
0.000580
0.000577
0.000561
0.000611
0.000606
0.000603
0.000601
0.000596
0.000601
0.000569
0.000609
0.000572
0.000580
0.000582
0.000601
0.000580
0.000577
0.000590
0.000601
0.000596
0.000580
0.000603
0.000609
0.000606
0.000609
0.000609
0.000575
0.000588
0.000611
0.000590
0.000598
0.000548
0.000530
0.000564
0.000596
0.000580
0.000617
0.000627
0.000606
0.000609
0.000630
0.000630
0.000585
0.000614
0.000590
0.000588
0.000603
0.000601
0.000614
0.000588
0.000596
0.000601
0.000624
0.000611
0.000614
0.000624
0.000622
0.000624
0.000614
0.000577
0.000506
0.000485
0.000535
0.000577
0.000561
0.000580
0.000630
0.000582
0.000598
0.000590
0.000598
0.000559
0.000512
0.000522
0.000559
0.000506
0.000533
0.000590
0.000611
0.000617
0.000596
0.000653
0.000614
0.000598
0.000622
0.000624
0.000590
0.000582
0.000582
0.000577
0.000588
0.000593
0.000572
0.000543
0.000525
0.000514
0.000551
0.000551
0.000575
0.000617
0.000580
0.000577
0.000590
0.000596
0.000609
0.000593
0.000598
0.000569
0.000567
0.000554
0.000582
0.000554
0.000540
0.000564
0.000590
0.000543
0.000517
0.000559
0.000588
0.000603
0.000575
0.000596
0.000588
0.000567
0.000593
0.000580
0.000596
0.000567
0.000582
0.000590
0.000603
0.000640
0.000619
0.000617
0.000598
0.000598
0.000590
0.000572
0.000477
0.000512
0.000561
0.000559
0.000554
0.000611
0.000624
0.000611
0.000609
0.000593
0.000614
0.000554
0.000564
0.000582
0.000588
0.000585
0.000619
0.000643
0.000614
0.000601
0.000606
0.000614
0.000601
0.000601
0.000609
0.000619
0.000617
0.000596
0.000617
0.000596
0.000593
0.000561
0.000564
0.000535
0.000488
0.000554
0.000588
0.000603
0.000590
0.000577
0.000543
0.000540
0.000588
0.000554
0.000577
0.000593
0.000601
0.000580
0.000575
0.000601
0.000601
0.000564
0.000546
0.000509
0.000522
0.000527
0.000530
0.000525
0.000588
0.000601
0.000635
0.000651
0.000622
0.000596
0.000585
0.000564
0.000580
0.000601
0.000567
0.000609
0.000596
0.000522
0.000525
0.000530
0.000559
0.000606
0.000672
0.000690
0.000672
0.000653
0.000611
0.000590
0.000582
0.000588
0.000614
0.000609
0.000588
0.000564
0.000519
0.000538
0.000569
0.000609
0.000624
0.000656
0.000606
0.000533
0.000491
0.000470
0.000488
0.000556
0.000585
0.000619
0.000619
0.000622
0.000624
0.000669
0.000724
0.000716
0.000732
0.000724
0.000561
0.000451
0.000451
0.000443
0.000493
0.000519
0.000522
0.000472
0.000459
0.000506
0.000601
0.000698
0.000800
0.000834
0.000811
0.000714
0.000538
0.000433
0.000409
0.000370
0.000365
0.000312
0.000289
0.000278
0.000307
0.000404
0.000569
0.000769
0.000903
0.001036
0.000979
0.000884
0.000792
0.000714
0.000664
0.000651
0.000556
0.000428
0.000320
0.000181
0.000220
0.000338
0.000506
0.000761
0.000913
0.000986
0.000905
0.000845
0.000750
0.000714
0.000732
0.000693
0.000627
0.000501
0.000404
0.000312
0.000312
0.000349
0.000498
0.000548
0.000572
0.000577
0.000611
0.000682
0.000729
0.000847
0.000868
0.000808
0.000593
0.000257
-0.000079
-0.000514
-0.001081
-0.001855
-0.002863
-0.004253
-0.006229
-0.008150
-0.009388
-0.010005
-0.010684
-0.011697
-0.012258
-0.012117
-0.012088
-0.012560
-0.013715
-0.014869
-0.015163
-0.014300
-0.013103
-0.012754
-0.013179
-0.013292
-0.013216
-0.013200
-0.012941
-0.012203
-0.011421
-0.011052
-0.010747
-0.010340
-0.010178
-0.010309
-0.009963
-0.009810
-0.010398
-0.010569
-0.009727
-0.009021
-0.008795
-0.008113
-0.007250
-0.007153
-0.007496
-0.007150
-0.006793
-0.006909
-0.007040
-0.006895
-0.006748
-0.006756
-0.006363
-0.006093
-0.006258
-0.006481
-0.006229
-0.005988
-0.005888
-0.005801
-0.005581
-0.005324
-0.005258
-0.005224
-0.005106
-0.005051
-0.005219
-0.005069
-0.004447
-0.004140
-0.004340
-0.004419
-0.004377
-0.004550
-0.004442
-0.003847
-0.003702
-0.004272
-0.004434
-0.004017
-0.003797
-0.003973
-0.004007
-0.004161
-0.004563
-0.004634
-0.004224
-0.003894
-0.004140
-0.004358
-0.004164
-0.003936
-0.003844
-0.003673
-0.003666
-0.004072
-0.004447
-0.004463
-0.004154
-0.003757
-0.003516
-0.003432
-0.003422
-0.003547
-0.003726
-0.003784
-0.003563
-0.003374
-0.003301
-0.002989
-0.002721
-0.002933
-0.003227
-0.003288
-0.003248
-0.003167
-0.003122
-0.002991
-0.002973
-0.002881
-0.002705
-0.002658
-0.002718
-0.002585
-0.002375
-0.002438
-0.002548
-0.002487
-0.002361
-0.002385
-0.002312
-0.002081
-0.002117
-0.002519
-0.002734
-0.002514
-0.002322
-0.002411
-0.002600
-0.002905
-0.003091
-0.002983
-0.002668
-0.002679
-0.002674
-0.002569
-0.002592
-0.002616
-0.002335
-0.002034
-0.002270
-0.002527
-0.002548
-0.002519
-0.002217
-0.001779
-0.001734
-0.002209
-0.002445
-0.002230
-0.002052
-0.002055
-0.002031
-0.002133
-0.002372
-0.002178
-0.001685
-0.001425
-0.001632
-0.001805
-0.001850
-0.002070
-0.002104
-0.001808
-0.001708
-0.001978
-0.002170
-0.001973
-0.001797
-0.001894
-0.001813
-0.001477
-0.001359
-0.001517
-0.001637
-0.001727
-0.001889
-0.002060
-0.001918
-0.001606
-0.001532
-0.001685
-0.001774
-0.001797
-0.001776
-0.001692
-0.001595
-0.001441
-0.001580
-0.001986
-0.002117
-0.001800
-0.001493
-0.001810
-0.002131
-0.002010
-0.001632
-0.001343
-0.001202
-0.001252
-0.001532
-0.001713
-0.001692
-0.001703
-0.001771
-0.001517
-0.001257
-0.001162
-0.001068
-0.000947
-0.000932
-0.000966
-0.000966
-0.001000
-0.001372
-0.001776
-0.001698
-0.001448
-0.001469
-0.001595
-0.001519
-0.001354
-0.001383
-0.001454
-0.001270
-0.001102
-0.001131
-0.001057
-0.000771
-0.000714
-0.000960
-0.001283
-0.001606
-0.001776
-0.001695
-0.001643
-0.001669
-0.001480
-0.001110
-0.001023
-0.001084
-0.000869
-0.000614
-0.000787
-0.000908
-0.000680
-0.000527
-0.000541
-0.000559
-0.000506
-0.000661
-0.000992
-0.001147
-0.001149
-0.001349
-0.001498
-0.001283
-0.001131
-0.001215
-0.001155
-0.000900
-0.000874
-0.001047
-0.000911
-0.000750
-0.000987
-0.001225
-0.001244
-0.001244
-0.001380
-0.001231
-0.000753
-0.000627
-0.000758
-0.000774
-0.000863
-0.001018
-0.000997
-0.000630
-0.000449
-0.000546
-0.000661
-0.000680
-0.000690
-0.000871
-0.001139
-0.001336
-0.001488
-0.001527
-0.001294
-0.001021
-0.000937
-0.000921
-0.000821
-0.000724
-0.000816
-0.000869
-0.000771
-0.000845
-0.000945
-0.000892
-0.000769
-0.000688
-0.000614
-0.000522
-0.000611
-0.000727
-0.000703
-0.000682
-0.000882
-0.001013
-0.000994
-0.001023
-0.001126
-0.001210
-0.001301
-0.001341
-0.001207
-0.000895
-0.000554
-0.000362
-0.000192
-0.000139
-0.000231
-0.000249
-0.000205
-0.000362
-0.000457
-0.000488
-0.000588
-0.000842
-0.000790
-0.000585
-0.000598
-0.000714
-0.000659
-0.000567
-0.000661
-0.000695
-0.000716
-0.000811
-0.000874
-0.000743
-0.000559
-0.000562
-0.000588
-0.000520
-0.000522
-0.000648
-0.000756
-0.000695
-0.000632
-0.000669
-0.000740
-0.000890
-0.000774
-0.000415
-0.000286
-0.000307
-0.000255
-0.000205
-0.000247
-0.000281
-0.000307
-0.000535
-0.000771
-0.000806
-0.000792
-0.000916
-0.001000
-0.000855
-0.000703
-0.000622
-0.000598
-0.000577
-0.000488
-0.000407
-0.000541
-0.000695
-0.000688
-0.000819
-0.001081
-0.001031
-0.000811
-0.000787
-0.000764
-0.000554
-0.000443
-0.000556
-0.000501
-0.000171
-0.000095
-0.000210
-0.000184
-0.000165
-0.000226
-0.000283
-0.000307
-0.000462
-0.000622
-0.000643
-0.000677
-0.000585
-0.000433
-0.000404
-0.000407
-0.000286
-0.000318
-0.000449
-0.000420
-0.000341
-0.000362
-0.000402
-0.000213
-0.000131
-0.000278
-0.000352
-0.000475
-0.000779
-0.000806
-0.000551
-0.000480
-0.000522
-0.000438
-0.000378
-0.000496
-0.000475
-0.000231
-0.000160
-0.000415
-0.000504
-0.000423
-0.000438
-0.000333
-0.000139
-0.000047
-0.000197
-0.000289
-0.000231
-0.000210
-0.000273
-0.000260
-0.000163
-0.000207
-0.000276
-0.000163
-0.000097
-0.000192
-0.000443
-0.000714
-0.000900
-0.000876
-0.000617
-0.000289
-0.000152
-0.000131
-0.000207
-0.000278
-0.000365
-0.000470
-0.000632
-0.000653
-0.000562
-0.000467
-0.000373
-0.000194
0.000008
0.000013
-0.000123
-0.000357
-0.000409
-0.000291
-0.000220
-0.000239
-0.000176
-0.000032
-0.000110
-0.000239
-0.000158
-0.000121
-0.000339
-0.000396
-0.000192
-0.000215
-0.000255
-0.000158
-0.000066
-0.000092
-0.000184
-0.000220
-0.000076
-0.000158
-0.000249
-0.000205
-0.000087
-0.000034
-0.000168
-0.000315
-0.000341
-0.000436
-0.000409
-0.000218
-0.000045
-0.000089
-0.000155
-0.000252
-0.000383
-0.000373
-0.000168
-0.000018
0.000016
0.000134
0.000176
0.000024
-0.000126
-0.000171
-0.000315
-0.000585
-0.000598
-0.000443
-0.000388
-0.000346
-0.000304
-0.000438
-0.000572
-0.000525
-0.000333
-0.000202
-0.000199
-0.000234
-0.000210
-0.000239
-0.000213
-0.000189
-0.000231
-0.000247
-0.000276
-0.000273
-0.000171
-0.000163
-0.000244
-0.000441
-0.000688
-0.000782
-0.000646
-0.000402
-0.000194
0.000029
0.000134
0.000005
-0.000060
-0.000045
-0.000178
-0.000388
-0.000396
-0.000210
-0.000210
-0.000412
-0.000412
-0.000328
-0.000328
-0.000391
-0.000276
-0.000042
-0.000074
-0.000176
-0.000118
-0.000081
-0.000192
-0.000352
-0.000318
-0.000236
-0.000210
-0.000139
-0.000197
-0.000352
-0.000360
-0.000283
-0.000289
-0.000268
-0.000142
-0.000003
0.000063
0.000003
-0.000058
-0.000210
-0.000283
-0.000328
-0.000493
-0.000664
-0.000535
-0.000310
-0.000205
-0.000333
-0.000381
-0.000294
-0.000108
-0.000034
-0.000076
-0.000165
-0.000220
-0.000178
-0.000079
-0.000063
-0.000016
-0.000032
-0.000165
-0.000270
-0.000249
-0.000255
-0.000268
-0.000257
-0.000142
0.000008
-0.000037
-0.000068
-0.000042
0.000068
0.000107
0.000071
0.000157
0.000165
-0.000029
-0.000074
0.000060
0.000042
-0.000042
-0.000102
-0.000118
-0.000210
-0.000189
-0.000074
-0.000074
-0.000063
-0.000000
0.000034
0.000005
-0.000000
0.000031
-0.000063
-0.000173
-0.000202
-0.000286
-0.000354
-0.000273
-0.000249
-0.000278
-0.000181
-0.000071
-0.000165
-0.000184
-0.000079
-0.000150
-0.000383
-0.000454
-0.000234
-0.000079
-0.000005
-0.000045
-0.000105
-0.000155
-0.000192
-0.000168
-0.000213
-0.000147
-0.000063
-0.000158
-0.000150
-0.000032
-0.000081
-0.000194
-0.000105
0.000008
-0.000063
-0.000241
-0.000365
-0.000378
-0.000352
-0.000257
-0.000158
-0.000068
-0.000084
-0.000223
-0.000302
-0.000294
-0.000192
-0.000089
-0.000008
0.000037
-0.000011
0.000045
0.000063
0.000039
0.000010
0.000031
0.000068
0.000050
-0.000121
-0.000168
-0.000008
0.000018
-0.000034
0.000021
0.000105
0.000052
-0.000026
0.000026
0.000084
0.000058
0.000003
0.000047
0.000073
0.000055
0.000170
0.000215
0.000215
0.000042
-0.000142
-0.000213
-0.000207
-0.000218
-0.000184
-0.000089
-0.000039
0.000013
0.000021
0.000024
0.000081
0.000094
0.000113
0.000087
0.000029
-0.000026
-0.000129
-0.000223
-0.000318
-0.000451
-0.000483
-0.000409
-0.000299
-0.000113
0.000037
0.000178
0.000210
0.000191
0.000173
0.000123
0.000142
0.000197
0.000170
0.000066
-0.000055
-0.000032
-0.000095
-0.000178
-0.000105
-0.000060
-0.000192
-0.000325
-0.000278
-0.000089
0.000031
-0.000037
-0.000039
-0.000034
-0.000060
-0.000024
0.000021
-0.000000
-0.000150
-0.000171
-0.000032
0.000100
-0.000013
-0.000108
-0.000110
-0.000134
-0.000213
-0.000058
0.000123
0.000118
0.000045
0.000139
0.000262
0.000121
0.000084
0.000194
0.000157
0.000042
0.000087
0.000247
0.000168
0.000134
0.000105
0.000068
-0.000089
-0.000050
0.000021
0.000024
-0.000081
-0.000142
-0.000142
-0.000126
-0.000158
-0.000021
0.000107
0.000121
0.000060
0.000042
-0.000005
0.000024
0.000147
0.000168
0.000073
-0.000026
-0.000234
-0.000255
-0.000050
0.000052
-0.000102
-0.000150
-0.000047
0.000081
0.000107
0.000226
0.000275
0.000197
0.000115
0.000123
0.000092
0.000089
0.000113
0.000097
-0.000060
-0.000058
0.000063
0.000139
-0.000000
-0.000079
-0.000092
-0.000105
-0.000134
-0.000074
0.000045
0.000042
0.000037
0.000118
0.000037
-0.000147
-0.000178
-0.000087
0.000016
0.000024
0.000050
0.000018
-0.000097
-0.000060
-0.000076
-0.000231
-0.000247
-0.000029
0.000115
0.000100
-0.000050
0.000037
0.000126
0.000152
0.000218
0.000247
0.000178
0.000050
0.000073
0.000249
0.000210
-0.000026
-0.000105
0.000063
0.000126
0.000131
0.000160
0.000160
0.000029
0.000066
0.000205
0.000331
0.000296
0.000210
0.000152
0.000037
-0.000060
-0.000084
-0.000016
0.000084
0.000186
0.000189
0.000037
-0.000113
-0.000110
-0.000076
-0.000087
-0.000076
0.000013
0.000016
-0.000005
-0.000008
0.000163
0.000215
0.000176
0.000239
0.000299
0.000265
0.000249
0.000233
0.000173
-0.000018
-0.000181
-0.000121
0.000063
0.000186
0.000210
0.000207
0.000176
0.000149
0.000168
0.000165
-0.000021
-0.000018
0.000155
0.000231
0.000170
0.000102
0.000121
0.000131
0.000202
0.000304
0.000252
0.000194
0.000102
0.000126
0.000121
0.000147
0.000121
0.000152
0.000257
0.000299
0.000226
0.000063
0.000039
0.000115
0.000178
0.000236
0.000181
0.000233
0.000289
0.000249
0.000084
-0.000050
-0.000047
0.000021
0.000052
0.000016
0.000089
0.000260
0.000257
0.000163
0.000123
0.000063
0.000063
0.000115
0.000194
0.000102
-0.000084
-0.000105
0.000071
0.000168
0.000110
0.000178
0.000207
0.000189
0.000094
-0.000024
-0.000139
-0.000102
0.000024
0.000055
-0.000102
-0.000126
0.000107
0.000265
0.000181
0.000042
0.000055
0.000123
0.000131
0.000142
0.000165
0.000102
-0.000053
-0.000113
0.000013
0.000128
0.000194
0.000226
0.000286
0.000244
0.000228
0.000231
0.000163
0.000073
0.000052
0.000026
-0.000021
-0.000045
0.000010
0.000142
0.000220
0.000178
0.000152
0.000189
0.000084
-0.000050
-0.000047
0.000136
0.000207
0.000126
0.000089
0.000118
0.000131
0.000163
0.000097
0.000005
0.000008
0.000118
0.000205
0.000202
0.000249
0.000239
0.000134
0.000013
0.000063
0.000100
0.000105
0.000107
0.000079
0.000058
0.000042
0.000144
0.000189
0.000055
-0.000097
-0.000013
0.000136
0.000131
0.000126
0.000163
0.000110
0.000139
0.000173
0.000191
0.000107
0.000110
0.000110
0.000071
0.000071
0.000136
0.000076
0.000008
0.000079
0.000005
-0.000150
-0.000058
0.000102
0.000055
-0.000034
0.000131
0.000210
0.000233
0.000231
0.000223
0.000142
0.000087
0.000176
0.000296
0.000265
0.000197
0.000265
0.000270
0.000170
0.000118
0.000052
0.000034
0.000100
0.000149
0.000060
0.000024
0.000079
0.000189
0.000181
0.000160
0.000170
0.000094
0.000010
0.000097
0.000110
-0.000018
0.000066
0.000262
0.000268
0.000100
0.000058
0.000131
0.000097
0.000003
0.000071
0.000247
0.000231
0.000273
0.000375
0.000289
0.000045
0.000026
0.000115
0.000060
0.000005
0.000136
0.000252
0.000163
0.000105
0.000076
0.000013
0.000003
0.000134
0.000228
0.000128
0.000034
0.000029
0.000084
0.000084
0.000220
0.000304
0.000210
0.000123
0.000189
0.000315
0.000333
0.000317
0.000323
0.000281
0.000170
0.000092
0.000134
0.000068
-0.000013
-0.000092
-0.000131
-0.000184
-0.000063
0.000173
0.000163
0.000066
0.000199
0.000299
0.000228
0.000197
0.000233
0.000233
0.000157
0.000181
0.000262
0.000270
0.000173
0.000042
-0.000071
-0.000108
-0.000045
0.000058
0.000128
0.000191
0.000331
0.000428
0.000412
0.000428
0.000317
0.000149
0.000024
-0.000021
0.000005
0.000047
0.000157
0.000270
0.000273
0.000160
0.000037
-0.000087
-0.000018
0.000097
0.000089
0.000155
0.000262
0.000244
0.000210
0.000194
0.000170
0.000079
0.000034
0.000047
0.000037
0.000113
0.000218
0.000296
0.000283
0.000223
0.000223
0.000202
0.000176
0.000249
0.000202
0.000147
0.000262
0.000289
0.000286
0.000223
0.000142
0.000194
0.000236
0.000194
0.000241
0.000296
0.000388
0.000441
0.000435
0.000388
0.000349
0.000252
0.000066
-0.000029
-0.000032
-0.000055
0.000021
0.000163
0.000291
0.000275
0.000275
0.000383
0.000341
0.000184
0.000121
0.000168
0.000094
0.000071
0.000157
0.000210
0.000089
-0.000011
0.000100
0.000181
0.000184
0.000257
0.000414
0.000409
0.000275
0.000226
0.000283
0.000304
0.000199
0.000231
0.000254
0.000202
0.000100
0.000149
0.000168
0.000071
-0.000003
0.000084
0.000155
0.000176
0.000207
0.000283
0.000357
0.000422
0.000477
0.000401
0.000349
0.000239
0.000191
0.000147
0.000115
0.000126
0.000094
0.000016
-0.000037
0.000013
0.000092
0.000139
0.000178
0.000223
0.000278
0.000270
0.000220
0.000160
0.000081
0.000034
0.000034
0.000089
0.000071
0.000042
0.000134
0.000226
0.000194
0.000199
0.000312
0.000362
0.000399
0.000396
0.000412
0.000359
0.000270
0.000294
0.000325
0.000260
0.000165
0.000157
0.000254
0.000275
0.000265
0.000278
0.000315
0.000302
0.000312
0.000315
0.000278
0.000186
0.000244
0.000304
0.000336
0.000294
0.000231
0.000247
0.000289
0.000304
0.000278
0.000142
-0.000055
-0.000105
0.000050
0.000121
0.000194
0.000202
0.000128
0.000042
0.000107
0.000307
0.000373
0.000262
0.000257
0.000289
0.000226
0.000170
0.000176
0.000068
-0.000087
-0.000045
0.000055
0.000123
0.000163
0.000265
0.000312
0.000273
0.000257
0.000260
0.000181
0.000126
0.000152
0.000113
0.000089
0.000105
0.000199
0.000260
0.000262
0.000331
0.000362
0.000302
0.000244
0.000215
0.000199
0.000089
0.000003
0.000016
-0.000013
-0.000008
-0.000000
0.000060
0.000131
0.000265
0.000273
0.000304
0.000349
0.000375
0.000462
0.000441
0.000401
0.000283
0.000173
0.000149
0.000126
0.000068
0.000016
0.000084
0.000157
0.000181
0.000262
0.000244
0.000170
0.000197
0.000283
0.000320
0.000310
0.000296
0.000236
0.000199
0.000207
0.000325
0.000396
0.000268
0.000084
0.000024
0.000123
0.000249
0.000241
0.000052
-0.000021
0.000024
0.000134
0.000173
0.000113
0.000005
0.000003
0.000089
0.000131
0.000233
0.000373
0.000443
0.000428
0.000420
0.000433
0.000441
0.000391
0.000375
0.000409
0.000357
0.000310
0.000270
0.000312
0.000223
0.000147
0.000144
0.000189
0.000207
0.000131
0.000194
0.000184
0.000160
0.000268
0.000331
0.000278
0.000147
0.000186
0.000320
0.000296
0.000262
0.000315
0.000328
0.000325
0.000370
0.000407
0.000328
0.000278
0.000244
0.000236
0.000178
0.000191
0.000257
0.000144
0.000081
0.000176
0.000283
0.000299
0.000320
0.000391
0.000378
0.000349
0.000367
0.000425
0.000317
0.000268
0.000210
0.000084
0.000005
0.000066
0.000228
0.000304
0.000278
0.000257
0.000207
0.000139
0.000226
0.000393
0.000380
0.000336
0.000386
0.000412
0.000380
0.000365
0.000354
0.000320
0.000275
0.000317
0.000365
0.000393
0.000273
0.000105
0.000034
0.000107
0.000094
0.000029
0.000110
0.000197
0.000199
0.000283
0.000346
0.000336
0.000260
0.000283
0.000302
0.000181
0.000087
0.000113
0.000105
0.000055
0.000050
0.000076
0.000079
0.000142
0.000178
0.000249
0.000338
0.000383
0.000446
0.000501
0.000546
0.000522
0.000472
0.000420
0.000367
0.000236
0.000226
0.000265
0.000312
0.000310
0.000354
0.000378
0.000307
0.000278
0.000331
0.000370
0.000328
0.000352
0.000396
0.000357
0.000226
0.000223
0.000281
0.000218
0.000205
0.000331
0.000338
0.000249
0.000257
0.000317
0.000349
0.000328
0.000244
0.000147
0.000052
0.000110
0.000283
0.000286
0.000249
0.000333
0.000352
0.000202
0.000160
0.000202
0.000247
0.000220
0.000149
0.000144
0.000152
0.000178
0.000302
0.000302
0.000163
0.000092
0.000233
0.000328
0.000296
0.000320
0.000365
0.000344
0.000262
0.000265
0.000226
0.000257
0.000365
0.000407
0.000333
0.000289
0.000352
0.000456
0.000512
0.000498
0.000467
0.000375
0.000289
0.000315
0.000299
0.000296
0.000231
0.000144
0.000094
0.000060
0.000105
0.000118
0.000181
0.000233
0.000257
0.000333
0.000320
0.000265
0.000202
0.000218
0.000275
0.000289
0.000299
0.000296
0.000281
0.000231
0.000315
0.000341
0.000233
0.000134
0.000128
0.000186
0.000197
0.000270
0.000260
0.000176
0.000170
0.000268
0.000307
0.000286
0.000275
0.000252
0.000207
0.000165
0.000233
0.000247
0.000291
0.000317
0.000233
0.000055
0.000005
0.000029
0.000084
0.000181
0.000317
0.000378
0.000409
0.000383
0.000409
0.000417
0.000365
0.000346
0.000223
0.000163
0.000218
0.000270
0.000178
0.000031
0.000060
0.000134
0.000142
0.000155
0.000223
0.000315
0.000270
0.000262
0.000286
0.000317
0.000375
0.000304
0.000312
0.000378
0.000317
0.000231
0.000323
0.000396
0.000346
0.000373
0.000433
0.000483
0.000414
0.000307
0.000315
0.000352
0.000312
0.000249
0.000304
0.000331
0.000205
0.000207
0.000270
0.000262
0.000307
0.000401
0.000449
0.000401
0.000433
0.000491
0.000451
0.000404
0.000289
0.000152
0.000115
0.000131
0.000149
0.000218
0.000336
0.000428
0.000401
0.000470
0.000514
0.000451
0.000226
0.000131
0.000233
0.000223
0.000152
0.000178
0.000296
0.000265
0.000136
0.000105
0.000084
0.000024
0.000066
0.000189
0.000278
0.000310
0.000338
0.000373
0.000260
0.000265
0.000370
0.000380
0.000346
0.000386
0.000498
0.000485
0.000407
0.000365
0.000352
0.000291
0.000270
0.000349
0.000367
0.000370
0.000349
0.000299
0.000315
0.000354
0.000317
0.000346
0.000417
0.000414
0.000325
0.000265
0.000262
0.000181
0.000176
0.000220
0.000252
0.000223
0.000344
0.000373
0.000338
0.000328
0.000341
0.000370
0.000396
0.000401
0.000362
0.000393
0.000504
0.000519
0.000438
0.000310
0.000302
0.000320
0.000320
0.000291
0.000283
0.000283
0.000231
0.000310
0.000396
0.000388
0.000262
0.000302
0.000302
0.000173
0.000168
0.000278
0.000275
0.000307
0.000380
0.000425
0.000346
0.000302
0.000336
0.000396
0.000396
0.000367
0.000388
0.000433
0.000365
0.000357
0.000333
0.000262
0.000323
0.000341
0.000228
0.000157
0.000205
0.000315
0.000359
0.000386
0.000362
0.000336
0.000273
0.000283
0.000336
0.000341
0.000349
0.000393
0.000417
0.000391
0.000375
0.000375
0.000375
0.000357
0.000354
0.000420
0.000396
0.000373
0.000370
0.000346
0.000346
0.000328
0.000299
0.000302
0.000365
0.000428
0.000462
0.000491
0.000428
0.000286
0.000247
0.000336
0.000409
0.000354
0.000378
0.000441
0.000407
0.000262
0.000247
0.000383
0.000420
0.000291
0.000302
0.000365
0.000333
0.000273
0.000331
0.000380
0.000307
0.000302
0.000393
0.000417
0.000323
0.000299
0.000328
0.000375
0.000378
0.000391
0.000504
0.000485
0.000352
0.000296
0.000323
0.000328
0.000312
0.000265
0.000262
0.000215
0.000165
0.000181
0.000170
0.000165
0.000257
0.000346
0.000412
0.000456
0.000472
0.000373
0.000296
0.000338
0.000399
0.000417
0.000420
0.000417
0.000386
0.000299
0.000220
0.000210
0.000286
0.000357
0.000323
0.000299
0.000346
0.000409
0.000367
0.000273
0.000294
0.000296
0.000178
0.000194
0.000310
0.000307
0.000218
0.000249
0.000365
0.000336
0.000302
0.000375
0.000357
0.000307
0.000315
0.000294
0.000296
0.000378
0.000493
0.000438
0.000373
0.000380
0.000422
0.000414
0.000404
0.000409
0.000254
0.000115
0.000123
0.000281
0.000346
0.000257
0.000281
0.000352
0.000365
0.000396
0.000441
0.000472
0.000378
0.000299
0.000296
0.000273
0.000247
0.000218
0.000252
0.000149
0.000097
0.000249
0.000367
0.000375
0.000338
0.000312
0.000252
0.000168
0.000018
-0.000060
-0.000068
-0.000005
0.000149
0.000336
0.000414
0.000378
0.000346
0.000338
0.000270
0.000252
0.000283
0.000307
0.000338
0.000386
0.000438
0.000446
0.000412
0.000352
0.000310
0.000281
0.000291
0.000349
0.000435
0.000449
0.000459
0.000464
0.000396
0.000315
0.000331
0.000310
0.000212
0.000218
0.000336
0.000331
0.000286
0.000338
0.000412
0.000393
0.000393
0.000407
0.000328
0.000226
0.000218
0.000294
0.000375
0.000336
0.000286
0.000252
0.000252
0.000354
0.000475
0.000519
0.000483
0.000472
0.000488
0.000504
0.000527
0.000540
0.000561
0.000459
0.000401
0.000362
0.000344
0.000357
0.000391
0.000417
0.000425
0.000417
0.000435
0.000451
0.000459
0.000367
0.000365
0.000435
0.000409
0.000273
0.000275
0.000344
0.000367
0.000386
0.000467
0.000580
0.000493
0.000472
0.000509
0.000464
0.000399
0.000396
0.000417
0.000388
0.000404
0.000472
0.000498
0.000472
0.000412
0.000404
0.000336
0.000315
0.000341
0.000425
0.000420
0.000388
0.000433
0.000506
0.000498
0.000365
0.000383
0.000454
0.000401
0.000386
0.000425
0.000362
0.000317
0.000354
0.000422
0.000359
0.000178
0.000139
0.000307
0.000393
0.000425
0.000485
0.000404
0.000341
0.000420
0.000512
0.000517
0.000459
0.000433
0.000414
0.000417
0.000438
0.000367
0.000315
0.000344
0.000373
0.000365
0.000294
0.000412
0.000498
0.000456
0.000393
0.000404
0.000359
0.000218
0.000212
0.000344
0.000412
0.000441
0.000443
0.000451
0.000485
0.000477
0.000496
0.000548
0.000517
0.000493
0.000514
0.000506
0.000546
0.000485
0.000433
0.000391
0.000373
0.000365
0.000378
0.000407
0.000425
0.000428
0.000446
0.000483
0.000522
0.000496
0.000333
0.000142
0.000102
0.000163
0.000228
0.000304
0.000404
0.000467
0.000509
0.000525
0.000543
0.000501
0.000467
0.000404
0.000417
0.000459
0.000438
0.000386
0.000420
0.000435
0.000393
0.000359
0.000459
0.000512
0.000433
0.000407
0.000404
0.000310
0.000244
0.000325
0.000396
0.000155
-0.000013
0.000060
0.000212
0.000344
0.000386
0.000449
0.000491
0.000420
0.000362
0.000304
0.000252
0.000281
0.000328
0.000373
0.000433
0.000470
0.000488
0.000446
0.000359
0.000315
0.000233
0.000191
0.000333
0.000438
0.000393
0.000260
0.000178
0.000205
0.000265
0.000302
0.000378
0.000441
0.000399
0.000401
0.000480
0.000514
0.000470
0.000380
0.000304
0.000142
0.000060
0.000121
0.000144
0.000121
0.000244
0.000391
0.000344
0.000241
0.000331
0.000407
0.000333
0.000331
0.000414
0.000404
0.000354
0.000383
0.000493
0.000454
0.000289
0.000210
0.000189
0.000197
0.000233
0.000312
0.000388
0.000367
0.000344
0.000365
0.000446
0.000501
0.000501
0.000514
0.000509
0.000456
0.000367
0.000409
0.000506
0.000425
0.000317
0.000252
0.000304
0.000354
0.000349
0.000357
0.000325
0.000307
0.000341
0.000414
0.000467
0.000430
0.000375
0.000352
0.000391
0.000475
0.000496
0.000480
0.000365
0.000328
0.000370
0.000393
0.000399
0.000362
0.000328
0.000407
0.000459
0.000459
0.000435
0.000449
0.000428
0.000388
0.000286
0.000173
0.000123
0.000118
0.000089
0.000189
0.000323
0.000270
0.000210
0.000265
0.000428
0.000472
0.000459
0.000512
0.000569
0.000530
0.000488
0.000533
0.000512
0.000401
0.000239
0.000207
0.000236
0.000233
0.000289
0.000383
0.000380
0.000383
0.000433
0.000475
0.000425
0.000370
0.000281
0.000168
0.000197
0.000268
0.000299
0.000291
0.000312
0.000333
0.000291
0.000312
0.000393
0.000462
0.000446
0.000438
0.000493
0.000564
0.000575
0.000543
0.000543
0.000517
0.000480
0.000467
0.000370
0.000244
0.000265
0.000346
0.000412
0.000430
0.000422
0.000485
0.000412
0.000349
0.000443
0.000438
0.000441
0.000412
0.000420
0.000341
0.000252
0.000317
0.000420
0.000399
0.000291
0.000359
0.000454
0.000420
0.000428
0.000459
0.000454
0.000414
0.000464
0.000472
0.000475
0.000401
0.000401
0.000498
0.000485
0.000459
0.000477
0.000483
0.000467
0.000451
0.000506
0.000485
0.000341
0.000299
0.000367
0.000349
0.000307
0.000370
0.000370
0.000349
0.000275
0.000341
0.000446
0.000422
0.000325
0.000268
0.000249
0.000312
0.000409
0.000422
0.000430
0.000304
0.000299
0.000310
0.000344
0.000404
0.000470
0.000462
0.000422
0.000425
0.000425
0.000370
0.000296
0.000226
0.000307
0.000359
0.000315
0.000199
0.000181
0.000244
0.000294
0.000325
0.000441
0.000504
0.000422
0.000430
0.000485
0.000530
0.000462
0.000414
0.000467
0.000446
0.000430
0.000464
0.000512
0.000462
0.000362
0.000380
0.000449
0.000464
0.000380
0.000370
0.000388
0.000404
0.000367
0.000296
0.000289
0.000386
0.000420
0.000407
0.000399
0.000467
0.000443
0.000378
0.000396
0.000399
0.000412
0.000443
0.000525
0.000527
0.000477
0.000380
0.000317
0.000315
0.000396
0.000412
0.000407
0.000454
0.000480
0.000517
0.000467
0.000525
0.000512
0.000425
0.000459
0.000483
0.000485
0.000470
0.000501
0.000467
0.000386
0.000386
0.000407
0.000346
0.000278
0.000331
0.000401
0.000346
0.000357
0.000443
0.000467
0.000420
0.000362
0.000370
0.000331
0.000383
0.000446
0.000420
0.000359
0.000373
0.000441
0.000498
0.000459
0.000470
0.000449
0.000352
0.000223
0.000270
0.000344
0.000414
0.000422
0.000485
0.000475
0.000428
0.000425
0.000425
0.000425
0.000299
0.000275
0.000328
0.000425
0.000422
0.000443
0.000472
0.000438
0.000417
0.000428
0.000483
0.000477
0.000446
0.000443
0.000352
0.000278
0.000354
0.000391
0.000362
0.000393
0.000435
0.000441
0.000459
0.000472
0.000480
0.000506
0.000470
0.000485
0.000504
0.000496
0.000501
0.000512
0.000483
0.000435
0.000367
0.000299
0.000323
0.000443
0.000504
0.000456
0.000449
0.000525
0.000538
0.000512
0.000519
0.000483
0.000344
0.000320
0.000480
0.000540
0.000517
0.000527
0.000554
0.000496
0.000433
0.000383
0.000289
0.000278
0.000362
0.000433
0.000446
0.000467
0.000483
0.000475
0.000475
0.000459
0.000354
0.000346
0.000420
0.000517
0.000498
0.000493
0.000522
0.000443
0.000333
0.000346
0.000409
0.000386
0.000422
0.000475
0.000554
0.000554
0.000527
0.000546
0.000483
0.000470
0.000470
0.000470
0.000428
0.000446
0.000475
0.000472
0.000446
0.000459
0.000412
0.000367
0.000386
0.000373
0.000375
0.000407
0.000425
0.000435
0.000506
0.000551
0.000535
0.000485
0.000399
0.000304
0.000307
0.000344
0.000391
0.000407
0.000430
0.000459
0.000464
0.000509
0.000485
0.000422
0.000417
0.000477
0.000488
0.000443
0.000472
0.000498
0.000462
0.000443
0.000425
0.000485
0.000464
0.000404
0.000430
0.000443
0.000428
0.000373
0.000346
0.000370
0.000344
0.000380
0.000433
0.000462
0.000412
0.000407
0.000433
0.000456
0.000435
0.000433
0.000367
0.000325
0.000325
0.000357
0.000438
0.000454
0.000388
0.000380
0.000409
0.000446
0.000451
0.000496
0.000438
0.000391
0.000331
0.000307
0.000383
0.000407
0.000399
0.000396
0.000422
0.000504
0.000512
0.000462
0.000519
0.000546
0.000480
0.000451
0.000420
0.000352
0.000257
0.000281
0.000354
0.000346
0.000299
0.000388
0.000422
0.000302
0.000212
0.000289
0.000357
0.000296
0.000278
0.000386
0.000414
0.000412
0.000480
0.000540
0.000493
0.000454
0.000496
0.000488
0.000438
0.000391
0.000430
0.000464
0.000438
0.000433
0.000446
0.000462
0.000477
0.000535
0.000512
0.000509
0.000483
0.000456
0.000506
0.000462
0.000480
0.000446
0.000470
0.000493
0.000438
0.000404
0.000409
0.000420
0.000430
0.000399
0.000359
0.000420
0.000498
0.000493
0.000470
0.000477
0.000491
0.000548
0.000519
0.000522
0.000504
0.000506
0.000454
0.000470
0.000501
0.000464
0.000362
0.000373
0.000483
0.000504
0.000485
0.000504
0.000491
0.000417
0.000373
0.000375
0.000399
0.000409
0.000391
0.000446
0.000501
0.000477
0.000467
0.000475
0.000391
0.000325
0.000307
0.000346
0.000396
0.000414
0.000352
0.000328
0.000378
0.000438
0.000404
0.000417
0.000488
0.000470
0.000412
0.000438
0.000441
0.000467
0.000488
0.000514
0.000538
0.000522
0.000435
0.000430
0.000464
0.000459
0.000386
0.000435
0.000477
0.000480
0.000367
0.000352
0.000430
0.000470
0.000485
0.000483
0.000464
0.000472
0.000501
0.000480
0.000475
0.000477
0.000509
0.000498
0.000496
0.000496
0.000435
0.000417
0.000456
0.000467
0.000346
0.000236
0.000352
0.000483
0.000491
0.000456
0.000512
0.000527
0.000443
0.000425
0.000483
0.000467
0.000446
0.000498
0.000449
0.000383
0.000414
0.000441
0.000388
0.000323
0.000409
0.000449
0.000441
0.000438
0.000501
0.000519
0.000485
0.000533
0.000530
0.000438
0.000422
0.000435
0.000467
0.000446
0.000498
0.000470
0.000477
0.000525
0.000527
0.000525
0.000506
0.000548
0.000540
0.000456
0.000420
0.000477
0.000527
0.000501
0.000464
0.000438
0.000496
0.000493
0.000396
0.000435
0.000509
0.000433
0.000425
0.000475
0.000514
0.000525
0.000519
0.000462
0.000401
0.000365
0.000386
0.000407
0.000401
0.000446
0.000454
0.000407
0.000378
0.000270
0.000268
0.000349
0.000480
0.000491
0.000470
0.000467
0.000485
0.000522
0.000504
0.000530
0.000519
0.000525
0.000548
0.000491
0.000470
0.000475
0.000470
0.000464
0.000483
0.000480
0.000480
0.000477
0.000554
0.000577
0.000485
0.000512
0.000548
0.000493
0.000441
0.000527
0.000480
0.000412
0.000422
0.000517
0.000470
0.000430
0.000514
0.000533
0.000485
0.000480
0.000498
0.000459
0.000435
0.000443
0.000538
0.000504
0.000491
0.000477
0.000491
0.000498
0.000551
0.000577
0.000543
0.000577
0.000543
0.000535
0.000467
0.000362
0.000412
0.000491
0.000514
0.000493
0.000428
0.000438
0.000365
0.000373
0.000386
0.000443
0.000373
0.000333
0.000391
0.000472
0.000509
0.000527
0.000543
0.000519
0.000428
0.000443
0.000517
0.000501
0.000430
0.000352
0.000380
0.000346
0.000362
0.000517
0.000527
0.000456
0.000480
0.000525
0.000530
0.000519
0.000530
0.000496
0.000357
0.000336
0.000454
0.000512
0.000475
0.000493
0.000540
0.000569
0.000462
0.000443
0.000404
0.000462
0.000399
0.000344
0.000383
0.000446
0.000420
0.000407
0.000441
0.000420
0.000407
0.000475
0.000575
0.000590
0.000535
0.000538
0.000459
0.000451
0.000498
0.000493
0.000441
0.000456
0.000546
0.000569
0.000483
0.000454
0.000498
0.000522
0.000517
0.000554
0.000606
0.000540
0.000504
0.000519
0.000472
0.000383
0.000425
0.000485
0.000446
0.000325
0.000304
0.000315
0.000338
0.000388
0.000467
0.000477
0.000404
0.000407
0.000430
0.000456
0.000449
0.000548
0.000601
0.000580
0.000525
0.000533
0.000567
0.000519
0.000509
0.000522
0.000433
0.000346
0.000399
0.000501
0.000456
0.000399
0.000435
0.000349
0.000184
0.000163
0.000283
0.000412
0.000399
0.000456
0.000504
0.000472
0.000393
0.000470
0.000548
0.000491
0.000493
0.000501
0.000556
0.000480
0.000430
0.000462
0.000477
0.000401
0.000417
0.000548
0.000585
0.000548
0.000543
0.000606
0.000538
0.000514
0.000488
0.000491
0.000485
0.000485
0.000464
0.000462
0.000425
0.000388
0.000412
0.000464
0.000475
0.000420
0.000299
0.000310
0.000391
0.000451
0.000496
0.000527
0.000449
0.000396
0.000435
0.000441
0.000470
0.000449
0.000401
0.000430
0.000443
0.000462
0.000477
0.000462
0.000470
0.000464
0.000493
0.000451
0.000409
0.000430
0.000506
0.000538
0.000543
0.000543
0.000514
0.000462
0.000491
0.000477
0.000449
0.000428
0.000435
0.000344
0.000296
0.000435
0.000488
0.000438
0.000488
0.000533
0.000488
0.000346
0.000310
0.000373
0.000375
0.000420
0.000456
0.000475
0.000496
0.000483
0.000443
0.000425
0.000467
0.000506
0.000493
0.000498
0.000480
0.000459
0.000378
0.000375
0.000438
0.000488
0.000475
0.000509
0.000525
0.000493
0.000451
0.000462
0.000470
0.000433
0.000412
0.000399
0.000396
0.000464
0.000483
0.000472
0.000475
0.000438
0.000404
0.000425
0.000533
0.000538
0.000477
0.000438
0.000393
0.000375
0.000417
0.000519
0.000483
0.000433
0.000446
0.000522
0.000559
0.000548
0.000540
0.000504
0.000472
0.000451
0.000344
0.000273
0.000328
0.000433
0.000412
0.000373
0.000433
0.000477
0.000456
0.000477
0.000543
0.000546
0.000501
0.000498
0.000506
0.000470
0.000409
0.000525
0.000525
0.000433
0.000454
0.000467
0.000449
0.000373
0.000373
0.000441
0.000430
0.000383
0.000399
0.000428
0.000470
0.000420
0.000325
0.000247
0.000265
0.000386
0.000443
0.000433
0.000464
0.000551
0.000582
0.000556
0.000564
0.000603
0.000548
0.000572
0.000609
0.000582
0.000564
0.000519
0.000556
0.000540
0.000480
0.000512
0.000522
0.000365
0.000262
0.000302
0.000349
0.000365
0.000428
0.000533
0.000582
0.000546
0.000554
0.000627
0.000554
0.000488
0.000477
0.000483
0.000491
0.000506
0.000556
0.000564
0.000493
0.000475
0.000498
0.000514
0.000519
0.000517
0.000522
0.000493
0.000535
0.000512
0.000393
0.000438
0.000459
0.000514
0.000517
0.000506
0.000551
0.000559
0.000556
0.000525
0.000462
0.000441
0.000464
0.000483
0.000443
0.000417
0.000336
0.000425
0.000451
0.000451
0.000472
0.000554
0.000551
0.000491
0.000446
0.000388
0.000399
0.000472
0.000493
0.000472
0.000420
0.000485
0.000491
0.000485
0.000517
0.000561
0.000538
0.000472
0.000417
0.000302
0.000205
0.000283
0.000430
0.000470
0.000438
0.000451
0.000470
0.000496
0.000512
0.000527
0.000472
0.000438
0.000357
0.000399
0.000430
0.000506
0.000514
0.000538
0.000585
0.000543
0.000564
0.000582
0.000603
0.000548
0.000530
0.000577
0.000598
0.000590
0.000588
0.000496
0.000336
0.000323
0.000443
0.000483
0.000477
0.000525
0.000538
0.000506
0.000435
0.000483
0.000451
0.000304
0.000233
0.000338
0.000456
0.000386
0.000412
0.000472
0.000449
0.000451
0.000522
0.000540
0.000491
0.000480
0.000533
0.000540
0.000548
0.000590
0.000580
0.000512
0.000480
0.000446
0.000412
0.000449
0.000472
0.000517
0.000535
0.000543
0.000590
0.000551
0.000506
0.000425
0.000375
0.000425
0.000438
0.000401
0.000296
0.000357
0.000365
0.000336
0.000399
0.000491
0.000475
0.000438
0.000459
0.000509
0.000522
0.000522
0.000554
0.000577
0.000548
0.000480
0.000396
0.000307
0.000352
0.000307
0.000359
0.000480
0.000467
0.000359
0.000388
0.000538
0.000519
0.000446
0.000501
0.000561
0.000530
0.000506
0.000491
0.000509
0.000425
0.000428
0.000491
0.000517
0.000493
0.000504
0.000540
0.000543
0.000538
0.000540
0.000459
0.000396
0.000422
0.000488
0.000485
0.000485
0.000493
0.000435
0.000407
0.000425
0.000430
0.000352
0.000278
0.000325
0.000365
0.000331
0.000296
0.000456
0.000533
0.000496
0.000477
0.000525
0.000459
0.000404
0.000388
0.000367
0.000304
0.000346
0.000446
0.000470
0.000412
0.000449
0.000551
0.000577
0.000572
0.000635
0.000630
0.000572
0.000556
0.000522
0.000456
0.000496
0.000559
0.000504
0.000435
0.000443
0.000446
0.000467
0.000522
0.000598
0.000593
0.000593
0.000588
0.000596
0.000596
0.000580
0.000535
0.000506
0.000454
0.000485
0.000530
0.000543
0.000543
0.000556
0.000533
0.000546
0.000538
0.000546
0.000512
0.000493
0.000525
0.000538
0.000451
0.000425
0.000378
0.000433
0.000456
0.000446
0.000493
0.000509
0.000480
0.000506
0.000561
0.000543
0.000512
0.000454
0.000428
0.000514
0.000477
0.000315
0.000254
0.000270
0.000367
0.000435
0.000504
0.000569
0.000533
0.000472
0.000462
0.000548
0.000475
0.000336
0.000325
0.000393
0.000396
0.000341
0.000373
0.000464
0.000433
0.000349
0.000383
0.000483
0.000533
0.000535
0.000569
0.000585
0.000548
0.000556
0.000561
0.000567
0.000506
0.000472
0.000509
0.000506
0.000488
0.000470
0.000472
0.000456
0.000491
0.000517
0.000530
0.000519
0.000519
0.000522
0.000533
0.000564
0.000596
0.000611
0.000577
0.000543
0.000496
0.000509
0.000554
0.000559
0.000569
0.000575
0.000559
0.000488
0.000425
0.000483
0.000493
0.000491
0.000443
0.000491
0.000501
0.000525
0.000509
0.000543
0.000567
0.000504
0.000506
0.000514
0.000517
0.000449
0.000393
0.000401
0.000425
0.000388
0.000464
0.000483
0.000422
0.000338
0.000409
0.000470
0.000449
0.000407
0.000493
0.000483
0.000407
0.000433
0.000475
0.000459
0.000451
0.000540
0.000588
0.000522
0.000535
0.000580
0.000569
0.000512
0.000540
0.000575
0.000580
0.000522
0.000512
0.000506
0.000472
0.000446
0.000470
0.000443
0.000412
0.000475
0.000449
0.000430
0.000443
0.000451
0.000409
0.000449
0.000433
0.000449
0.000428
0.000430
0.000425
0.000370
0.000312
0.000299
0.000346
0.000401
0.000493
0.000517
0.000470
0.000459
0.000501
0.000517
0.000509
0.000543
0.000617
0.000590
0.000567
0.000590
0.000622
0.000546
0.000506
0.000548
0.000540
0.000535
0.000564
0.000540
0.000412
0.000401
0.000396
0.000407
0.000349
0.000386
0.000491
0.000509
0.000501
0.000561
0.000525
0.000456
0.000467
0.000491
0.000449
0.000370
0.000407
0.000491
0.000477
0.000488
0.000543
0.000572
0.000506
0.000477
0.000504
0.000483
0.000365
0.000378
0.000496
0.000475
0.000425
0.000498
0.000451
0.000291
0.000239
0.000328
0.000283
0.000336
0.000475
0.000567
0.000572
0.000527
0.000527
0.000554
0.000512
0.000551
0.000564
0.000504
0.000470
0.000501
0.000533
0.000546
0.000559
0.000596
0.000577
0.000538
0.000533
0.000504
0.000456
0.000443
0.000428
0.000533
0.000540
0.000543
0.000540
0.000556
0.000554
0.000540
0.000538
0.000535
0.000530
0.000504
0.000493
0.000556
0.000512
0.000491
0.000483
0.000491
0.000556
0.000525
0.000504
0.000504
0.000564
0.000543
0.000509
0.000554
0.000527
0.000472
0.000435
0.000459
0.000519
0.000488
0.000504
0.000527
0.000517
0.000535
0.000548
0.000588
0.000603
0.000572
0.000554
0.000509
0.000480
0.000519
0.000512
0.000462
0.000467
0.000459
0.000467
0.000404
0.000438
0.000498
0.000477
0.000459
0.000501
0.000538
0.000504
0.000391
0.000420
0.000438
0.000485
0.000512
0.000428
0.000346
0.000378
0.000401
0.000443
0.000493
0.000496
0.000422
0.000417
0.000483
0.000506
0.000485
0.000454
0.000451
0.000451
0.000449
0.000533
0.000514
0.000504
0.000543
0.000580
0.000509
0.000483
0.000470
0.000472
0.000472
0.000420
0.000451
0.000514
0.000540
0.000475
0.000459
0.000449
0.000357
0.000323
0.000417
0.000470
0.000443
0.000404
0.000407
0.000393
0.000380
0.000359
0.000396
0.000477
0.000514
0.000582
0.000561
0.000540
0.000493
0.000409
0.000401
0.000438
0.000491
0.000527
0.000546
0.000588
0.000585
0.000517
0.000470
0.000556
0.000561
0.000527
0.000501
0.000485
0.000428
0.000441
0.000493
0.000496
0.000512
0.000556
0.000575
0.000543
0.000556
0.000569
0.000525
0.000522
0.000519
0.000493
0.000522
0.000543
0.000559
0.000554
0.000480
0.000477
0.000470
0.000483
0.000475
0.000514
0.000575
0.000556
0.000533
0.000551
0.000533
0.000509
0.000491
0.000527
0.000546
0.000554
0.000598
0.000580
0.000601
0.000588
0.000509
0.000412
0.000373
0.000349
0.000362
0.000483
0.000551
0.000538
0.000598
0.000588
0.000575
0.000527
0.000506
0.000580
0.000551
0.000564
0.000593
0.000588
0.000609
0.000630
0.000596
0.000543
0.000491
0.000472
0.000446
0.000485
0.000530
0.000509
0.000491
0.000475
0.000430
0.000422
0.000464
0.000517
0.000506
0.000517
0.000548
0.000554
0.000538
0.000522
0.000519
0.000483
0.000409
0.000380
0.000451
0.000380
0.000378
0.000509
0.000593
0.000535
0.000525
0.000582
0.000603
0.000533
0.000580
0.000611
0.000559
0.000556
0.000548
0.000449
0.000380
0.000462
0.000517
0.000467
0.000477
0.000540
0.000598
0.000582
0.000596
0.000638
0.000546
0.000485
0.000504
0.000485
0.000464
0.000517
0.000527
0.000514
0.000477
0.000409
0.000467
0.000546
0.000517
0.000443
0.000386
0.000362
0.000425
0.000467
0.000498
0.000477
0.000459
0.000493
0.000567
0.000522
0.000559
0.000606
0.000606
0.000593
0.000619
0.000504
0.000425
0.000433
0.000527
0.000530
0.000456
0.000509
0.000569
0.000527
0.000530
0.000548
0.000572
0.000522
0.000483
0.000491
0.000483
0.000517
0.000582
0.000596
0.000582
0.000567
0.000543
0.000509
0.000467
0.000451
0.000367
0.000338
0.000412
0.000483
0.000533
0.000564
0.000611
0.000619
0.000564
0.000519
0.000485
0.000470
0.000525
0.000540
0.000498
0.000399
0.000365
0.000370
0.000425
0.000443
0.000456
0.000493
0.000556
0.000593
0.000577
0.000527
0.000540
0.000551
0.000527
0.000546
0.000548
0.000564
0.000496
0.000498
0.000575
0.000611
0.000582
0.000596
0.000627
0.000622
0.000569
0.000582
0.000556
0.000506
0.000449
0.000430
0.000449
0.000485
0.000462
0.000438
0.000459
0.000480
0.000548
0.000577
0.000561
0.000569
0.000569
0.000548
0.000582
0.000585
0.000569
0.000519
0.000501
0.000533
0.000519
0.000543
0.000533
0.000488
0.000459
0.000493
0.000575
0.000590
0.000569
0.000585
0.000527
0.000501
0.000527
0.000567
0.000567
0.000522
0.000485
0.000488
0.000459
0.000491
0.000493
0.000483
0.000446
0.000485
0.000548
0.000590
0.000561
0.000540
0.000470
0.000365
0.000373
0.000501
0.000538
0.000509
0.000496
0.000577
0.000593
0.000556
0.000559
0.000575
0.000533
0.000475
0.000561
0.000551
0.000462
0.000454
0.000483
0.000522
0.000480
0.000475
0.000517
0.000509
0.000517
0.000496
0.000556
0.000551
0.000509
0.000462
0.000404
0.000464
0.000480
0.000438
0.000349
0.000412
0.000493
0.000527
0.000538
0.000538
0.000554
0.000569
0.000561
0.000601
0.000601
0.000624
0.000564
0.000572
0.000582
0.000575
0.000538
0.000569
0.000525
0.000417
0.000401
0.000496
0.000506
0.000459
0.000517
0.000585
0.000596
0.000538
0.000525
0.000488
0.000459
0.000435
0.000498
0.000575
0.000551
0.000569
0.000609
0.000590
0.000509
0.000399
0.000370
0.000331
0.000310
0.000386
0.000506
0.000554
0.000596
0.000614
0.000611
0.000590
0.000506
0.000430
0.000438
0.000496
0.000554
0.000559
0.000540
0.000554
0.000530
0.000491
0.000475
0.000472
0.000470
0.000446
0.000467
0.000514
0.000535
0.000569
0.000569
0.000596
0.000569
0.000535
0.000477
0.000522
0.000504
0.000446
0.000449
0.000514
0.000551
0.000535
0.000546
0.000582
0.000548
0.000519
0.000514
0.000525
0.000512
0.000456
0.000412
0.000472
0.000533
0.000540
0.000551
0.000601
0.000582
0.000588
0.000522
0.000546
0.000577
0.000525
0.000548
0.000525
0.000564
0.000517
0.000525
0.000543
0.000506
0.000506
0.000567
0.000606
0.000561
0.000564
0.000533
0.000567
0.000596
0.000593
0.000593
0.000593
0.000561
0.000483
0.000477
0.000559
0.000546
0.000509
0.000548
0.000567
0.000559
0.000512
0.000514
0.000485
0.000443
0.000483
0.000559
0.000551
0.000533
0.000575
0.000588
0.000530
0.000496
0.000548
0.000506
0.000459
0.000454
0.000480
0.000538
0.000556
0.000559
0.000559
0.000551
0.000548
0.000575
0.000546
0.000554
0.000519
0.000477
0.000504
0.000496
0.000548
0.000467
0.000464
0.000501
0.000559
0.000554
0.000546
0.000514
0.000512
0.000540
0.000535
0.000525
0.000533
0.000514
0.000449
0.000449
0.000475
0.000464
0.000459
0.000504
0.000559
0.000554
0.000548
0.000543
0.000472
0.000409
0.000449
0.000488
0.000522
0.000554
0.000551
0.000580
0.000611
0.000632
0.000617
0.000556
0.000496
0.000512
0.000551
0.000525
0.000493
0.000483
0.000451
0.000459
0.000493
0.000527
0.000540
0.000556
0.000483
0.000412
0.000412
0.000491
0.000527
