Start time = 18:29:32.739547
End time = 18:29:42.680047
laser_energy = 7.040
channel_1_dial = 850
channel_2_dial = 850
channel_3_dial = 850
channel_4_dial = 850
NG-1-LII = 0
NG-3-15399 = 0
NG-4-LII = 0
NG-4-15399 = 0
NG-5-LII = 0
NG-5-15399 = 0
NG-9-LII = 0
NG-9-15399 = 0
NG-10-01 = 0
NG-11-15399 = 0
NG-12-15399 = 0
NG-4A-2001 = 0
NG-4B-2001 = 0
NG-5A-2001 = 0
NG-3-2001 = 0
NG-5B-2001 = 0
NG-1-2001 = 0
NG-9-2001 = 0
NG-10-2001 = 0
NG-11-2001 = 0
NG-12-2001 = 0
AND-200SN09 = 0
AND-100SN09 = 0
AND-050SN09 = 0
AND-030SN09 = 0
AND-015SN05 = 0
PMT#1Voltage = 0
PMT#2Voltage = 0
t0(sec) = 0.000000E+0
dt(sec) = 4.000000E-10
F1:INSP "
DESCRIPTOR_NAME    : WAVEDESC           
TEMPLATE_NAME      : LECROY_2_3         
COMM_TYPE          : word               
COMM_ORDER         : HIFIRST            
WAVE_DESCRIPTOR    : 346                
USER_TEXT          : 0                  
RES_DESC1          : 0                  
TRIGTIME_ARRAY     : 0                  
RIS_TIME_ARRAY     : 0                  
RES_ARRAY1         : 0                  
WAVE_ARRAY_1       : 10002              
WAVE_ARRAY_2       : 0                  
RES_ARRAY2         : 0                  
RES_ARRAY3         : 0                  
INSTRUMENT_NAME    : LECROYHDO6104      
INSTRUMENT_NUMBER  : 6308               
TRACE_LABEL        :                    
RESERVED1          : 5001               
RESERVED2          : 0                  
WAVE_ARRAY_COUNT   : 5001               
PNTS_PER_SCREEN    : 5000               
FIRST_VALID_PNT    : 0                  
LAST_VALID_PNT     : 5000               
FIRST_POINT        : 0                  
SPARSING_FACTOR    : 1                  
SEGMENT_INDEX      : 0                  
SUBARRAY_COUNT     : 1                  
SWEEPS_PER_ACQ     : 200                
POINTS_PER_PAIR    : 0                  
PAIR_OFFSET        : 0                  
VERTICAL_GAIN      : 2.6238e-006        
VERTICAL_OFFSET    : 6.5501e-002        
MAX_VALUE          : 3.0816e+004        
MIN_VALUE          : 1.3388e+004        
NOMINAL_BITS       : 16                 
NOM_SUBARRAY_COUNT : 1                  
HORIZ_INTERVAL     : 4.0000e-010        
HORIZ_OFFSET       : -2.00000000e-007   
PIXEL_OFFSET       : -2.00000000e-007   
VERTUNIT           : Unit Name = V
HORUNIT            : Unit Name = S
HORIZ_UNCERTAINTY  : 1.0000e-012        
TRIGGER_TIME       : Date = APR 17, 2024, Time = 19:29:28.611162721
ACQ_DURATION       : 9.9989e+000        
RECORD_TYPE        : single_sweep       
PROCESSING_DONE    : no_processing      
RESERVED5          : 0                  
RIS_SWEEPS         : 1                  
TIMEBASE           : 200_ns/div         
VERT_COUPLING      : DC_50_Ohms         
PROBE_ATT          : 1.0000e+000        
FIXED_VERT_GAIN    : 5_mV/div           
BANDWIDTH_LIMIT    : off                
VERTICAL_VERNIER   : 1.1600e+000        
ACQ_VERT_OFFSET    : 0.0000e+000        
WAVE_SOURCE        : UNKNOWN            
"
0.000149
0.000108
0.000139
0.000136
0.000108
0.000149
0.000139
0.000149
0.000189
0.000142
0.000147
0.000123
0.000113
0.000129
0.000118
0.000142
0.000144
0.000123
0.000102
0.000105
0.000134
0.000108
0.000134
0.000115
0.000142
0.000149
0.000142
0.000142
0.000186
0.000178
0.000178
0.000163
0.000165
0.000176
0.000181
0.000126
0.000170
0.000152
0.000149
0.000136
0.000142
0.000121
0.000136
0.000105
0.000118
0.000147
0.000118
0.000149
0.000170
0.000134
0.000160
0.000126
0.000126
0.000142
0.000139
0.000108
0.000176
0.000163
0.000131
0.000147
0.000142
0.000118
0.000155
0.000144
0.000142
0.000170
0.000134
0.000139
0.000155
0.000126
0.000144
0.000160
0.000149
0.000168
0.000165
0.000155
0.000165
0.000144
0.000126
0.000110
0.000100
0.000100
0.000115
0.000131
0.000134
0.000108
0.000108
0.000123
0.000121
0.000113
0.000123
0.000134
0.000123
0.000147
0.000144
0.000118
0.000168
0.000191
0.000165
0.000165
0.000173
0.000105
0.000139
0.000142
0.000139
0.000113
0.000110
0.000134
0.000149
0.000147
0.000147
0.000139
0.000142
0.000139
0.000152
0.000121
0.000152
0.000129
0.000139
0.000165
0.000168
0.000173
0.000157
0.000155
0.000173
0.000157
0.000142
0.000139
0.000170
0.000152
0.000149
0.000134
0.000105
0.000118
0.000108
0.000079
0.000110
0.000110
0.000087
0.000123
0.000144
0.000121
0.000157
0.000149
0.000163
0.000157
0.000170
0.000149
0.000184
0.000155
0.000176
0.000176
0.000157
0.000176
0.000168
0.000118
0.000149
0.000160
0.000115
0.000129
0.000147
0.000139
0.000147
0.000160
0.000160
0.000184
0.000163
0.000129
0.000189
0.000163
0.000184
0.000163
0.000176
0.000165
0.000189
0.000152
0.000147
0.000168
0.000102
0.000092
0.000129
0.000108
0.000134
0.000144
0.000118
0.000131
0.000136
0.000165
0.000131
0.000118
0.000147
0.000139
0.000176
0.000173
0.000181
0.000152
0.000147
0.000149
0.000160
0.000157
0.000163
0.000144
0.000147
0.000142
0.000149
0.000115
0.000129
0.000118
0.000100
0.000108
0.000134
0.000149
0.000147
0.000170
0.000184
0.000170
0.000181
0.000186
0.000176
0.000189
0.000191
0.000173
0.000181
0.000147
0.000142
0.000136
0.000129
0.000105
0.000105
0.000094
0.000110
0.000094
0.000092
0.000126
0.000131
0.000126
0.000134
0.000152
0.000139
0.000136
0.000157
0.000134
0.000142
0.000121
0.000142
0.000170
0.000165
0.000105
0.000144
0.000134
0.000155
0.000160
0.000136
0.000149
0.000168
0.000129
0.000102
0.000118
0.000142
0.000092
0.000139
0.000134
0.000126
0.000134
0.000163
0.000173
0.000197
0.000168
0.000155
0.000160
0.000170
0.000155
0.000142
0.000155
0.000186
0.000123
0.000134
0.000142
0.000152
0.000136
0.000157
0.000152
0.000157
0.000136
0.000113
0.000129
0.000139
0.000115
0.000129
0.000123
0.000144
0.000121
0.000139
0.000134
0.000142
0.000134
0.000126
0.000136
0.000165
0.000131
0.000149
0.000121
0.000129
0.000163
0.000168
0.000168
0.000178
0.000147
0.000168
0.000142
0.000160
0.000144
0.000155
0.000134
0.000142
0.000121
0.000110
0.000147
0.000126
0.000105
0.000155
0.000126
0.000139
0.000155
0.000136
0.000121
0.000110
0.000126
0.000165
0.000134
0.000131
0.000155
0.000147
0.000139
0.000160
0.000157
0.000170
0.000165
0.000147
0.000123
0.000170
0.000168
0.000152
0.000149
0.000157
0.000136
0.000157
0.000165
0.000178
0.000142
0.000149
0.000157
0.000160
0.000152
0.000168
0.000160
0.000170
0.000144
0.000131
0.000092
0.000139
0.000123
0.000123
0.000123
0.000123
0.000121
0.000129
0.000131
0.000126
0.000123
0.000157
0.000160
0.000165
0.000139
0.000134
0.000129
0.000142
0.000094
0.000136
0.000100
0.000139
0.000144
0.000129
0.000139
0.000173
0.000126
0.000147
0.000134
0.000136
0.000147
0.000173
0.000155
0.000149
0.000134
0.000149
0.000142
0.000113
0.000134
0.000144
0.000110
0.000155
0.000126
0.000144
0.000155
0.000152
0.000118
0.000155
0.000176
0.000176
0.000189
0.000189
0.000152
0.000160
0.000108
0.000131
0.000144
0.000155
0.000134
0.000165
0.000149
0.000157
0.000144
0.000126
0.000123
0.000134
0.000108
0.000126
0.000129
0.000129
0.000126
0.000123
0.000126
0.000136
0.000118
0.000144
0.000165
0.000155
0.000170
0.000160
0.000144
0.000131
0.000105
0.000105
0.000089
0.000115
0.000115
0.000139
0.000181
0.000220
0.000207
0.000202
0.000184
0.000160
0.000113
0.000121
0.000105
0.000136
0.000139
0.000155
0.000157
0.000142
0.000142
0.000129
0.000168
0.000207
0.000207
0.000194
0.000194
0.000170
0.000139
0.000136
0.000131
0.000142
0.000129
0.000126
0.000163
0.000160
0.000113
0.000147
0.000129
0.000147
0.000139
0.000147
0.000131
0.000168
0.000152
0.000165
0.000168
0.000163
0.000194
0.000176
0.000176
0.000197
0.000142
0.000113
0.000129
0.000079
0.000045
0.000094
0.000063
0.000087
0.000068
0.000113
0.000063
0.000068
0.000076
0.000097
0.000157
0.000202
0.000241
0.000281
0.000299
0.000294
0.000265
0.000207
0.000163
0.000139
0.000073
0.000063
-0.000005
-0.000016
0.000005
0.000037
0.000042
0.000110
0.000110
0.000199
0.000218
0.000207
0.000218
0.000236
0.000181
0.000178
0.000131
0.000115
0.000147
0.000160
0.000129
0.000147
0.000139
0.000160
0.000160
0.000194
0.000212
0.000262
0.000249
0.000270
0.000244
0.000228
0.000218
0.000197
0.000139
0.000129
0.000102
0.000058
0.000029
-0.000000
-0.000058
-0.000110
-0.000281
-0.000504
-0.001031
-0.001918
-0.003243
-0.004996
-0.007202
-0.009782
-0.012754
-0.015730
-0.018075
-0.019794
-0.021153
-0.022184
-0.023079
-0.023688
-0.023971
-0.024037
-0.024003
-0.023879
-0.023793
-0.023738
-0.023622
-0.023446
-0.023176
-0.022722
-0.022166
-0.021597
-0.021019
-0.020460
-0.020122
-0.019679
-0.018949
-0.018225
-0.017711
-0.017417
-0.016947
-0.016328
-0.015727
-0.015019
-0.014360
-0.013922
-0.013552
-0.013185
-0.012812
-0.012382
-0.012049
-0.011668
-0.011280
-0.011062
-0.010844
-0.010506
-0.010159
-0.009782
-0.009632
-0.009682
-0.009768
-0.009834
-0.010102
-0.010396
-0.010700
-0.010968
-0.011170
-0.011296
-0.011393
-0.011275
-0.011070
-0.010844
-0.010619
-0.010466
-0.010361
-0.010259
-0.010120
-0.010005
-0.009852
-0.009708
-0.009551
-0.009406
-0.009215
-0.008903
-0.008577
-0.008344
-0.008163
-0.007992
-0.007801
-0.007622
-0.007462
-0.007239
-0.007103
-0.006901
-0.006641
-0.006381
-0.006155
-0.005927
-0.005812
-0.005786
-0.005707
-0.005581
-0.005437
-0.005261
-0.005116
-0.004925
-0.004817
-0.004752
-0.004712
-0.004699
-0.004757
-0.004757
-0.004820
-0.004815
-0.004749
-0.004830
-0.004893
-0.004878
-0.004865
-0.004830
-0.004726
-0.004605
-0.004621
-0.004579
-0.004584
-0.004550
-0.004500
-0.004369
-0.004282
-0.004237
-0.004185
-0.004138
-0.004154
-0.004159
-0.004072
-0.003991
-0.003970
-0.003915
-0.003815
-0.003768
-0.003755
-0.003726
-0.003668
-0.003626
-0.003595
-0.003484
-0.003332
-0.003212
-0.003073
-0.002968
-0.003002
-0.002962
-0.002926
-0.002813
-0.002752
-0.002739
-0.002721
-0.002655
-0.002574
-0.002524
-0.002385
-0.002236
-0.002285
-0.002385
-0.002516
-0.002632
-0.002671
-0.002653
-0.002548
-0.002522
-0.002545
-0.002564
-0.002603
-0.002676
-0.002731
-0.002813
-0.002933
-0.002933
-0.002860
-0.002776
-0.002671
-0.002561
-0.002529
-0.002490
-0.002409
-0.002314
-0.002173
-0.002057
-0.001968
-0.001984
-0.002096
-0.002141
-0.002162
-0.002123
-0.002075
-0.001929
-0.001855
-0.001808
-0.001763
-0.001732
-0.001690
-0.001632
-0.001629
-0.001629
-0.001703
-0.001805
-0.001805
-0.001737
-0.001682
-0.001566
-0.001501
-0.001406
-0.001357
-0.001349
-0.001299
-0.001307
-0.001380
-0.001441
-0.001493
-0.001527
-0.001559
-0.001608
-0.001645
-0.001637
-0.001643
-0.001671
-0.001622
-0.001595
-0.001577
-0.001514
-0.001483
-0.001425
-0.001427
-0.001349
-0.001265
-0.001225
-0.001228
-0.001225
-0.001309
-0.001351
-0.001378
-0.001385
-0.001409
-0.001409
-0.001391
-0.001412
-0.001364
-0.001336
-0.001294
-0.001233
-0.001191
-0.001126
-0.001068
-0.001031
-0.001039
-0.001063
-0.001126
-0.001155
-0.001170
-0.001197
-0.001139
-0.001071
-0.001034
-0.000960
-0.000963
-0.000932
-0.000942
-0.000950
-0.000942
-0.000992
-0.001047
-0.001055
-0.001097
-0.001094
-0.001134
-0.001126
-0.001152
-0.001097
-0.001063
-0.001002
-0.000968
-0.001018
-0.001081
-0.001084
-0.001089
-0.001147
-0.001102
-0.001055
-0.001107
-0.001118
-0.001131
-0.001110
-0.001050
-0.000992
-0.000939
-0.000871
-0.000884
-0.000840
-0.000811
-0.000756
-0.000680
-0.000611
-0.000593
-0.000588
-0.000609
-0.000667
-0.000716
-0.000758
-0.000850
-0.000905
-0.000971
-0.000997
-0.001071
-0.001113
-0.001107
-0.001071
-0.001065
-0.000966
-0.000853
-0.000798
-0.000722
-0.000659
-0.000687
-0.000651
-0.000680
-0.000643
-0.000625
-0.000659
-0.000640
-0.000625
-0.000669
-0.000661
-0.000648
-0.000661
-0.000667
-0.000643
-0.000711
-0.000766
-0.000827
-0.000832
-0.000848
-0.000795
-0.000816
-0.000777
-0.000706
-0.000648
-0.000606
-0.000527
-0.000520
-0.000538
-0.000554
-0.000520
-0.000538
-0.000551
-0.000572
-0.000590
-0.000693
-0.000716
-0.000771
-0.000840
-0.000827
-0.000785
-0.000777
-0.000769
-0.000685
-0.000588
-0.000554
-0.000514
-0.000470
-0.000462
-0.000459
-0.000459
-0.000436
-0.000491
-0.000491
-0.000470
-0.000520
-0.000488
-0.000559
-0.000653
-0.000695
-0.000695
-0.000703
-0.000706
-0.000625
-0.000562
-0.000504
-0.000436
-0.000415
-0.000407
-0.000446
-0.000470
-0.000488
-0.000499
-0.000512
-0.000485
-0.000478
-0.000422
-0.000396
-0.000396
-0.000433
-0.000459
-0.000496
-0.000559
-0.000614
-0.000627
-0.000643
-0.000627
-0.000693
-0.000653
-0.000646
-0.000577
-0.000554
-0.000509
-0.000438
-0.000386
-0.000399
-0.000312
-0.000331
-0.000370
-0.000399
-0.000404
-0.000459
-0.000475
-0.000551
-0.000617
-0.000640
-0.000604
-0.000614
-0.000598
-0.000619
-0.000606
-0.000585
-0.000596
-0.000517
-0.000491
-0.000475
-0.000425
-0.000381
-0.000391
-0.000391
-0.000370
-0.000378
-0.000383
-0.000391
-0.000436
-0.000467
-0.000512
-0.000501
-0.000475
-0.000493
-0.000478
-0.000499
-0.000527
-0.000525
-0.000478
-0.000480
-0.000422
-0.000457
-0.000449
-0.000464
-0.000412
-0.000391
-0.000394
-0.000412
-0.000436
-0.000517
-0.000577
-0.000572
-0.000520
-0.000575
-0.000577
-0.000530
-0.000556
-0.000554
-0.000485
-0.000428
-0.000378
-0.000383
-0.000354
-0.000325
-0.000307
-0.000297
-0.000249
-0.000247
-0.000223
-0.000270
-0.000291
-0.000278
-0.000318
-0.000325
-0.000328
-0.000373
-0.000407
-0.000443
-0.000428
-0.000459
-0.000428
-0.000378
-0.000394
-0.000472
-0.000415
-0.000391
-0.000373
-0.000339
-0.000310
-0.000331
-0.000344
-0.000362
-0.000370
-0.000388
-0.000391
-0.000404
-0.000391
-0.000391
-0.000388
-0.000425
-0.000449
-0.000483
-0.000491
-0.000522
-0.000436
-0.000420
-0.000409
-0.000381
-0.000352
-0.000373
-0.000362
-0.000339
-0.000357
-0.000367
-0.000315
-0.000312
-0.000304
-0.000310
-0.000318
-0.000344
-0.000373
-0.000365
-0.000399
-0.000420
-0.000404
-0.000422
-0.000409
-0.000370
-0.000341
-0.000328
-0.000294
-0.000283
-0.000268
-0.000262
-0.000247
-0.000270
-0.000312
-0.000362
-0.000310
-0.000304
-0.000312
-0.000283
-0.000270
-0.000312
-0.000328
-0.000352
-0.000375
-0.000360
-0.000336
-0.000344
-0.000323
-0.000299
-0.000268
-0.000289
-0.000302
-0.000257
-0.000226
-0.000236
-0.000215
-0.000215
-0.000184
-0.000239
-0.000234
-0.000273
-0.000268
-0.000297
-0.000357
-0.000394
-0.000381
-0.000415
-0.000415
-0.000420
-0.000396
-0.000370
-0.000289
-0.000220
-0.000176
-0.000160
-0.000110
-0.000097
-0.000092
-0.000089
-0.000116
-0.000134
-0.000110
-0.000178
-0.000202
-0.000234
-0.000236
-0.000341
-0.000412
-0.000422
-0.000399
-0.000436
-0.000415
-0.000446
-0.000446
-0.000417
-0.000402
-0.000365
-0.000294
-0.000304
-0.000226
-0.000213
-0.000213
-0.000163
-0.000147
-0.000134
-0.000102
-0.000116
-0.000108
-0.000155
-0.000192
-0.000270
-0.000278
-0.000341
-0.000315
-0.000352
-0.000365
-0.000375
-0.000375
-0.000360
-0.000370
-0.000381
-0.000383
-0.000370
-0.000357
-0.000325
-0.000299
-0.000291
-0.000239
-0.000197
-0.000247
-0.000231
-0.000197
-0.000228
-0.000210
-0.000223
-0.000220
-0.000297
-0.000297
-0.000336
-0.000333
-0.000336
-0.000252
-0.000207
-0.000197
-0.000178
-0.000157
-0.000207
-0.000197
-0.000202
-0.000226
-0.000223
-0.000223
-0.000257
-0.000231
-0.000231
-0.000294
-0.000328
-0.000331
-0.000310
-0.000278
-0.000336
-0.000241
-0.000234
-0.000220
-0.000147
-0.000121
-0.000163
-0.000147
-0.000160
-0.000165
-0.000205
-0.000215
-0.000223
-0.000220
-0.000207
-0.000205
-0.000189
-0.000168
-0.000178
-0.000157
-0.000226
-0.000223
-0.000210
-0.000273
-0.000283
-0.000289
-0.000346
-0.000357
-0.000365
-0.000323
-0.000231
-0.000178
-0.000160
-0.000063
-0.000058
-0.000053
-0.000074
-0.000105
-0.000118
-0.000134
-0.000165
-0.000155
-0.000186
-0.000176
-0.000213
-0.000202
-0.000213
-0.000199
-0.000176
-0.000168
-0.000144
-0.000097
-0.000163
-0.000178
-0.000205
-0.000226
-0.000199
-0.000197
-0.000186
-0.000160
-0.000123
-0.000121
-0.000134
-0.000152
-0.000165
-0.000178
-0.000252
-0.000231
-0.000213
-0.000194
-0.000171
-0.000123
-0.000131
-0.000102
-0.000157
-0.000150
-0.000150
-0.000157
-0.000136
-0.000089
-0.000063
-0.000045
-0.000053
-0.000060
-0.000081
-0.000108
-0.000165
-0.000165
-0.000184
-0.000213
-0.000231
-0.000218
-0.000239
-0.000241
-0.000213
-0.000144
-0.000095
-0.000050
-0.000053
-0.000029
-0.000032
-0.000005
0.000034
0.000039
0.000031
0.000050
-0.000026
-0.000081
-0.000118
-0.000223
-0.000249
-0.000249
-0.000283
-0.000252
-0.000265
-0.000218
-0.000202
-0.000184
-0.000207
-0.000155
-0.000197
-0.000118
-0.000100
-0.000121
-0.000113
-0.000071
-0.000100
-0.000079
-0.000060
-0.000058
-0.000058
-0.000066
-0.000144
-0.000134
-0.000168
-0.000176
-0.000194
-0.000207
-0.000202
-0.000197
-0.000215
-0.000218
-0.000215
-0.000215
-0.000176
-0.000105
-0.000081
-0.000029
-0.000011
-0.000047
-0.000050
-0.000011
-0.000055
-0.000042
-0.000055
-0.000066
-0.000074
-0.000089
-0.000126
-0.000097
-0.000152
-0.000147
-0.000150
-0.000157
-0.000171
-0.000163
-0.000181
-0.000126
-0.000150
-0.000147
-0.000123
-0.000074
-0.000105
-0.000047
-0.000055
-0.000076
-0.000110
-0.000136
-0.000131
-0.000121
-0.000176
-0.000150
-0.000110
-0.000113
-0.000105
-0.000053
-0.000105
-0.000134
-0.000150
-0.000150
-0.000152
-0.000142
-0.000155
-0.000116
-0.000092
-0.000113
-0.000071
-0.000079
-0.000063
-0.000063
-0.000089
-0.000060
-0.000092
-0.000079
-0.000100
-0.000068
-0.000058
-0.000100
-0.000121
-0.000165
-0.000150
-0.000168
-0.000192
-0.000131
-0.000144
-0.000147
-0.000205
-0.000207
-0.000199
-0.000160
-0.000165
-0.000087
-0.000060
-0.000055
-0.000089
-0.000123
-0.000152
-0.000168
-0.000160
-0.000171
-0.000160
-0.000139
-0.000136
-0.000129
-0.000116
-0.000102
-0.000100
-0.000084
-0.000110
-0.000047
-0.000063
-0.000066
-0.000058
-0.000055
-0.000084
-0.000060
-0.000123
-0.000139
-0.000144
-0.000142
-0.000129
-0.000100
-0.000121
-0.000118
-0.000144
-0.000129
-0.000105
-0.000136
-0.000136
-0.000081
-0.000105
-0.000089
-0.000068
-0.000076
-0.000050
-0.000058
-0.000050
-0.000074
-0.000063
-0.000042
-0.000102
-0.000102
-0.000126
-0.000142
-0.000136
-0.000118
-0.000123
-0.000100
-0.000095
-0.000076
-0.000095
-0.000060
-0.000000
0.000016
-0.000013
0.000039
-0.000000
0.000026
0.000037
0.000013
-0.000013
-0.000066
-0.000121
-0.000129
-0.000163
-0.000157
-0.000163
-0.000139
-0.000118
-0.000142
-0.000173
-0.000213
-0.000163
-0.000173
-0.000163
-0.000108
-0.000058
-0.000050
-0.000071
-0.000026
-0.000081
-0.000092
-0.000116
-0.000144
-0.000168
-0.000155
-0.000184
-0.000144
-0.000139
-0.000121
-0.000126
-0.000136
-0.000139
-0.000126
-0.000160
-0.000105
-0.000058
-0.000047
-0.000021
-0.000016
0.000008
0.000031
0.000008
-0.000005
0.000008
0.000008
-0.000013
-0.000003
-0.000000
0.000005
-0.000039
-0.000053
-0.000074
-0.000084
-0.000095
-0.000074
-0.000068
-0.000042
-0.000066
-0.000058
-0.000068
-0.000071
-0.000066
-0.000034
-0.000021
-0.000016
-0.000021
0.000013
-0.000000
0.000003
-0.000032
-0.000071
-0.000121
-0.000134
-0.000147
-0.000116
-0.000095
-0.000066
-0.000055
-0.000034
-0.000053
-0.000071
-0.000139
-0.000123
-0.000110
-0.000092
-0.000063
-0.000013
-0.000011
0.000008
0.000010
-0.000026
-0.000068
-0.000081
-0.000123
-0.000087
-0.000116
-0.000108
-0.000089
-0.000097
-0.000155
-0.000097
-0.000097
-0.000068
-0.000053
-0.000018
0.000010
0.000031
0.000024
0.000037
-0.000029
-0.000034
-0.000039
-0.000047
-0.000060
-0.000087
-0.000068
-0.000092
-0.000123
-0.000089
-0.000118
-0.000136
-0.000142
-0.000116
-0.000134
-0.000089
-0.000076
-0.000034
-0.000008
-0.000011
-0.000063
-0.000042
-0.000079
-0.000050
-0.000032
-0.000016
0.000010
0.000008
-0.000026
-0.000042
-0.000074
-0.000076
-0.000118
-0.000102
-0.000071
-0.000076
-0.000089
-0.000089
-0.000092
-0.000034
-0.000063
-0.000024
-0.000058
-0.000042
-0.000037
-0.000032
-0.000000
-0.000005
-0.000008
-0.000008
-0.000042
-0.000063
-0.000084
-0.000102
-0.000095
-0.000089
-0.000071
-0.000076
-0.000042
-0.000032
-0.000042
-0.000050
-0.000068
-0.000047
-0.000018
-0.000008
-0.000008
0.000016
0.000045
0.000034
0.000031
0.000026
0.000034
0.000010
0.000024
0.000013
-0.000011
0.000005
-0.000018
-0.000003
-0.000032
0.000010
0.000008
-0.000005
-0.000032
0.000008
-0.000018
-0.000026
0.000008
0.000010
-0.000016
-0.000000
0.000005
0.000005
0.000018
0.000047
0.000039
0.000018
-0.000021
-0.000018
-0.000029
-0.000039
-0.000039
-0.000024
-0.000063
-0.000039
-0.000039
-0.000045
-0.000068
-0.000071
-0.000076
-0.000060
-0.000076
-0.000047
-0.000050
-0.000042
-0.000026
0.000013
-0.000000
-0.000013
-0.000045
-0.000079
-0.000108
-0.000097
-0.000113
-0.000071
-0.000058
-0.000032
-0.000018
0.000005
-0.000008
0.000039
-0.000008
-0.000008
0.000003
0.000026
-0.000005
0.000034
0.000047
0.000037
0.000031
0.000026
-0.000011
0.000013
-0.000034
-0.000018
-0.000026
-0.000047
-0.000034
-0.000055
-0.000084
-0.000060
-0.000089
-0.000081
-0.000068
-0.000055
-0.000026
-0.000018
-0.000074
-0.000071
-0.000068
-0.000055
-0.000042
0.000018
-0.000000
0.000031
-0.000000
0.000005
-0.000021
-0.000011
-0.000003
0.000031
0.000005
0.000031
0.000018
0.000016
-0.000045
-0.000032
-0.000026
-0.000055
-0.000042
-0.000016
0.000010
0.000029
-0.000018
-0.000005
-0.000039
-0.000037
-0.000053
-0.000034
-0.000029
-0.000034
-0.000042
0.000003
0.000003
0.000021
0.000010
-0.000013
-0.000032
-0.000050
-0.000029
0.000021
0.000039
0.000037
0.000008
0.000034
0.000008
-0.000008
-0.000013
-0.000021
-0.000016
-0.000018
-0.000034
-0.000032
-0.000042
-0.000032
-0.000055
-0.000034
-0.000079
-0.000076
-0.000068
-0.000063
-0.000034
-0.000018
0.000005
0.000031
-0.000005
0.000005
-0.000037
-0.000034
-0.000087
-0.000105
-0.000136
-0.000084
-0.000108
-0.000045
-0.000068
-0.000076
-0.000053
-0.000021
-0.000026
-0.000005
-0.000005
0.000045
0.000045
0.000026
0.000026
0.000018
-0.000011
-0.000018
-0.000071
-0.000050
-0.000039
-0.000063
-0.000058
-0.000089
-0.000097
-0.000071
-0.000076
-0.000026
-0.000005
0.000016
0.000018
0.000052
0.000050
0.000042
0.000029
-0.000003
-0.000045
-0.000053
-0.000081
-0.000079
-0.000066
-0.000058
-0.000060
-0.000058
-0.000026
-0.000008
-0.000018
-0.000047
-0.000053
-0.000063
-0.000084
-0.000076
-0.000047
-0.000042
-0.000029
0.000021
0.000003
0.000031
0.000045
0.000063
0.000055
0.000052
0.000037
0.000055
0.000018
0.000018
0.000029
0.000008
-0.000008
-0.000034
-0.000058
-0.000076
-0.000092
-0.000050
-0.000050
-0.000032
-0.000042
-0.000034
-0.000060
-0.000042
-0.000076
-0.000037
-0.000032
-0.000008
0.000008
0.000037
0.000058
0.000063
0.000018
0.000024
0.000021
-0.000008
-0.000029
-0.000021
-0.000042
-0.000016
-0.000037
-0.000037
-0.000060
-0.000042
-0.000068
-0.000008
-0.000029
-0.000024
-0.000039
0.000003
0.000018
0.000029
0.000060
0.000058
0.000052
0.000045
-0.000003
-0.000021
-0.000021
-0.000008
-0.000026
-0.000047
-0.000066
-0.000024
-0.000050
-0.000050
-0.000068
-0.000063
-0.000039
-0.000024
-0.000045
0.000026
0.000026
0.000034
0.000029
0.000026
0.000052
0.000052
0.000055
0.000052
0.000037
0.000029
-0.000008
0.000013
-0.000000
0.000047
0.000016
0.000018
0.000021
0.000050
0.000021
0.000045
0.000042
0.000003
-0.000018
-0.000037
-0.000045
-0.000029
-0.000026
0.000005
0.000016
0.000026
-0.000032
-0.000011
-0.000018
-0.000011
-0.000021
-0.000034
0.000008
-0.000005
-0.000021
-0.000047
-0.000039
-0.000058
-0.000058
-0.000008
-0.000018
0.000003
0.000042
0.000045
0.000008
0.000063
0.000063
0.000087
0.000100
0.000087
0.000071
0.000055
0.000013
0.000005
-0.000021
-0.000018
-0.000032
-0.000055
-0.000058
-0.000050
-0.000058
-0.000018
-0.000005
0.000029
0.000018
0.000016
-0.000003
0.000034
0.000018
-0.000008
0.000031
0.000029
0.000024
0.000026
0.000029
0.000058
-0.000000
0.000008
0.000005
0.000018
0.000003
0.000024
0.000026
0.000018
0.000008
0.000024
0.000018
0.000029
0.000031
0.000060
0.000068
0.000045
0.000034
0.000068
0.000050
0.000050
0.000021
0.000047
0.000047
0.000050
0.000016
-0.000011
-0.000003
-0.000039
-0.000026
-0.000032
0.000018
0.000055
0.000060
0.000087
0.000089
0.000113
0.000092
0.000084
0.000087
0.000055
0.000005
-0.000005
-0.000003
-0.000024
-0.000026
0.000026
-0.000008
0.000016
0.000013
0.000039
0.000058
0.000055
0.000029
0.000060
0.000034
0.000031
0.000029
0.000021
0.000037
0.000031
0.000018
0.000021
0.000039
0.000034
0.000031
0.000013
0.000010
-0.000000
-0.000060
-0.000053
-0.000039
-0.000039
-0.000053
-0.000021
-0.000066
-0.000008
-0.000008
0.000037
0.000050
0.000084
0.000071
0.000108
0.000110
0.000084
0.000115
0.000076
0.000076
0.000066
0.000005
0.000003
0.000005
0.000013
-0.000008
-0.000000
0.000003
-0.000000
0.000021
0.000013
-0.000003
-0.000013
-0.000058
-0.000050
-0.000050
-0.000042
-0.000039
-0.000008
0.000031
0.000073
0.000037
0.000042
0.000063
0.000031
0.000039
0.000073
0.000034
0.000042
0.000042
0.000047
0.000063
0.000094
0.000063
0.000076
0.000060
0.000079
0.000060
0.000052
0.000073
0.000081
0.000079
0.000055
0.000034
0.000031
0.000037
0.000047
0.000008
0.000039
0.000021
0.000071
0.000073
0.000076
0.000034
0.000005
-0.000000
0.000005
0.000005
0.000026
0.000029
0.000055
0.000031
0.000039
0.000063
0.000039
0.000039
0.000073
0.000024
0.000021
-0.000000
0.000021
0.000026
0.000039
0.000013
0.000029
0.000031
0.000037
0.000037
0.000031
0.000052
0.000058
0.000026
0.000024
-0.000008
-0.000008
0.000024
0.000008
-0.000005
-0.000011
-0.000008
-0.000029
-0.000037
0.000016
0.000016
0.000039
0.000042
0.000076
0.000039
0.000047
0.000037
0.000066
0.000031
0.000050
0.000029
0.000037
0.000045
0.000047
0.000031
0.000071
0.000081
0.000050
0.000060
0.000089
0.000031
0.000029
-0.000003
0.000010
-0.000000
-0.000021
0.000010
0.000024
0.000024
0.000039
0.000018
-0.000008
-0.000005
-0.000000
-0.000003
0.000003
-0.000008
-0.000011
0.000024
0.000045
-0.000003
-0.000026
0.000003
0.000016
-0.000011
0.000018
0.000045
0.000076
0.000039
0.000071
0.000052
0.000066
0.000050
0.000060
0.000018
0.000076
0.000079
0.000060
0.000076
0.000050
0.000058
0.000063
0.000073
0.000102
0.000092
0.000108
0.000105
0.000129
0.000073
0.000118
0.000126
0.000066
0.000079
0.000092
0.000084
0.000060
0.000045
0.000018
0.000026
0.000024
-0.000011
0.000029
0.000052
0.000047
0.000089
0.000058
0.000055
0.000079
0.000013
0.000071
0.000079
0.000060
0.000071
0.000066
0.000047
0.000071
0.000052
0.000052
0.000084
0.000060
0.000050
0.000052
0.000042
0.000042
0.000024
0.000055
0.000042
0.000071
0.000052
0.000089
0.000094
0.000094
0.000094
0.000079
0.000071
0.000094
0.000081
0.000079
0.000060
0.000118
0.000050
0.000050
0.000031
0.000016
0.000016
0.000016
0.000010
0.000047
0.000024
0.000034
-0.000000
-0.000018
-0.000011
-0.000005
-0.000021
0.000010
0.000013
0.000031
0.000029
0.000050
0.000029
0.000021
-0.000005
0.000024
0.000034
0.000029
0.000026
0.000066
0.000031
0.000058
0.000045
0.000039
0.000052
0.000050
0.000034
0.000039
0.000073
0.000060
0.000055
0.000071
0.000058
0.000052
0.000042
0.000087
0.000066
0.000042
0.000052
0.000063
0.000024
0.000034
0.000047
-0.000005
0.000005
0.000016
0.000005
0.000037
0.000047
0.000039
0.000024
0.000031
0.000039
0.000031
0.000045
0.000034
0.000024
0.000045
0.000058
0.000102
0.000105
0.000089
0.000110
0.000081
0.000050
0.000084
0.000037
0.000073
0.000055
0.000047
0.000039
0.000034
0.000005
0.000047
0.000045
0.000087
0.000060
0.000052
0.000047
0.000034
-0.000003
0.000026
0.000026
-0.000000
0.000037
0.000050
0.000024
0.000042
0.000039
0.000042
0.000081
0.000073
0.000047
0.000071
0.000042
0.000060
0.000076
0.000042
0.000055
0.000066
0.000050
0.000042
0.000045
0.000060
0.000024
0.000060
0.000031
0.000045
0.000052
0.000060
0.000050
0.000052
0.000071
0.000066
0.000052
0.000066
0.000081
0.000063
0.000042
0.000052
0.000052
0.000084
0.000079
0.000102
0.000100
0.000097
0.000076
0.000076
0.000066
0.000092
0.000068
0.000087
0.000084
0.000063
0.000071
0.000089
0.000094
0.000071
0.000068
0.000121
0.000100
0.000113
0.000155
0.000108
0.000094
0.000110
0.000058
0.000108
0.000092
0.000087
0.000102
0.000097
0.000084
0.000084
0.000042
0.000079
0.000076
0.000066
0.000089
0.000084
0.000047
0.000081
0.000081
0.000097
0.000076
0.000118
0.000121
0.000126
0.000123
0.000079
0.000071
0.000055
0.000066
0.000055
0.000052
0.000060
0.000076
0.000076
0.000073
0.000079
0.000052
0.000068
0.000045
0.000034
0.000026
0.000042
0.000034
0.000045
0.000050
0.000052
0.000055
0.000058
0.000084
0.000089
0.000079
0.000118
0.000073
0.000097
0.000079
0.000071
0.000071
0.000060
0.000079
0.000037
0.000058
0.000037
0.000058
0.000097
0.000094
0.000113
0.000081
0.000084
0.000071
0.000068
0.000068
0.000089
0.000105
0.000097
0.000097
0.000092
0.000066
0.000079
0.000102
0.000081
0.000073
0.000084
0.000076
0.000047
0.000029
0.000060
0.000039
0.000045
0.000029
0.000076
0.000031
0.000058
0.000039
0.000010
0.000005
0.000016
0.000016
0.000052
0.000102
0.000081
0.000076
0.000087
0.000094
0.000092
0.000089
0.000102
0.000050
0.000060
0.000058
0.000068
0.000068
0.000097
0.000066
0.000089
0.000063
0.000084
0.000052
0.000081
0.000071
0.000071
0.000055
0.000097
0.000087
0.000092
0.000094
0.000113
0.000105
0.000105
0.000094
0.000084
0.000071
0.000060
0.000052
0.000039
0.000034
0.000081
0.000071
0.000097
0.000068
0.000063
0.000060
0.000066
0.000047
0.000050
0.000042
0.000094
0.000087
0.000087
0.000115
0.000131
0.000102
0.000113
0.000118
0.000073
0.000055
0.000087
0.000060
0.000092
0.000087
0.000100
0.000100
0.000089
0.000079
0.000076
0.000060
0.000076
0.000066
0.000058
0.000076
0.000060
0.000024
0.000034
0.000013
0.000021
0.000003
0.000066
0.000029
0.000042
0.000055
0.000076
0.000068
0.000102
0.000094
0.000123
0.000089
0.000089
0.000060
0.000052
0.000073
0.000068
0.000063
0.000097
0.000071
0.000100
0.000068
0.000071
0.000037
0.000031
0.000081
0.000060
0.000058
0.000081
0.000076
0.000126
0.000113
0.000126
0.000142
0.000100
0.000079
0.000087
0.000084
0.000066
0.000076
0.000047
0.000039
0.000066
0.000042
0.000081
0.000102
0.000089
0.000071
0.000105
0.000092
0.000081
0.000105
0.000115
0.000087
0.000081
0.000058
0.000084
0.000089
0.000108
0.000084
0.000063
0.000055
0.000100
0.000063
0.000097
0.000097
0.000066
0.000055
0.000050
0.000026
0.000024
0.000026
0.000076
0.000100
0.000079
0.000063
0.000050
0.000039
0.000026
0.000013
0.000029
0.000055
0.000071
0.000045
0.000123
0.000121
0.000126
0.000081
0.000100
0.000084
0.000055
0.000066
0.000079
0.000066
0.000100
0.000108
0.000144
0.000092
0.000102
0.000084
0.000063
0.000073
0.000060
0.000058
0.000079
0.000089
0.000084
0.000081
0.000050
0.000047
0.000034
0.000058
0.000076
0.000071
0.000092
0.000068
0.000118
0.000079
0.000100
0.000123
0.000121
0.000108
0.000102
0.000089
0.000076
0.000066
0.000076
0.000079
0.000055
0.000092
0.000079
0.000050
0.000063
0.000060
0.000047
0.000055
0.000092
0.000042
0.000102
0.000102
0.000134
0.000105
0.000115
0.000121
0.000134
0.000136
0.000136
0.000105
0.000102
0.000094
0.000100
0.000108
0.000121
0.000087
0.000052
0.000045
0.000050
0.000055
0.000097
0.000068
0.000071
0.000045
0.000087
0.000076
0.000079
0.000118
0.000152
0.000105
0.000142
0.000129
0.000121
0.000105
0.000123
0.000102
0.000094
0.000079
0.000050
0.000066
0.000068
0.000050
0.000013
0.000013
0.000034
0.000016
0.000029
0.000087
0.000108
0.000108
0.000100
0.000097
0.000097
0.000063
0.000071
0.000052
0.000042
0.000016
0.000031
0.000052
0.000055
0.000092
0.000102
0.000084
0.000102
0.000102
0.000113
0.000115
0.000113
0.000081
0.000081
0.000113
0.000118
0.000118
0.000121
0.000066
0.000071
0.000021
0.000052
0.000010
0.000037
0.000039
0.000042
0.000060
0.000100
0.000047
0.000031
0.000047
0.000018
0.000016
0.000045
0.000039
0.000066
0.000050
0.000079
0.000066
0.000076
0.000089
0.000102
0.000100
0.000121
0.000087
0.000094
0.000134
0.000131
0.000123
0.000110
0.000094
0.000113
0.000068
0.000081
0.000105
0.000097
0.000068
0.000115
0.000121
0.000097
0.000108
0.000105
0.000092
0.000081
0.000058
0.000060
0.000073
0.000084
0.000066
0.000066
0.000055
0.000092
0.000066
0.000073
0.000079
0.000084
0.000092
0.000102
0.000097
0.000097
0.000073
0.000071
0.000076
0.000113
0.000123
0.000134
0.000105
0.000123
0.000115
0.000108
0.000108
0.000108
0.000084
0.000081
0.000066
0.000063
0.000034
0.000029
0.000013
0.000029
0.000024
0.000063
0.000071
0.000113
0.000139
0.000110
0.000097
0.000144
0.000129
0.000139
0.000110
0.000121
0.000100
0.000081
0.000087
0.000121
0.000129
0.000121
0.000108
0.000076
0.000060
0.000068
0.000039
0.000045
0.000066
0.000076
0.000073
0.000073
0.000081
0.000089
0.000076
0.000110
0.000094
0.000079
0.000102
0.000105
0.000113
0.000139
0.000134
0.000139
0.000126
0.000147
0.000139
0.000136
0.000155
0.000131
0.000097
0.000144
0.000105
0.000097
0.000102
0.000102
0.000100
0.000094
0.000115
0.000102
0.000100
0.000113
0.000084
0.000087
0.000087
0.000087
0.000092
0.000118
0.000118
0.000100
0.000094
0.000092
0.000071
0.000058
0.000089
0.000105
0.000087
0.000063
0.000100
0.000123
0.000108
0.000126
0.000110
0.000131
0.000102
0.000079
0.000097
0.000092
0.000097
0.000092
0.000089
0.000108
0.000089
0.000092
0.000102
0.000121
0.000097
0.000092
0.000113
0.000094
0.000068
0.000089
0.000102
0.000110
0.000084
0.000081
0.000081
0.000068
0.000058
0.000081
0.000071
0.000102
0.000108
0.000126
0.000123
0.000115
0.000123
0.000102
0.000123
0.000123
0.000118
0.000155
0.000126
0.000152
0.000118
0.000155
0.000136
0.000105
0.000108
0.000131
0.000084
0.000136
0.000110
0.000126
0.000089
0.000097
0.000092
0.000105
0.000105
0.000100
0.000097
0.000097
0.000058
0.000037
0.000039
0.000081
0.000071
0.000108
0.000123
0.000136
0.000108
0.000121
0.000139
0.000147
0.000089
0.000110
0.000092
0.000084
0.000071
0.000079
0.000081
0.000097
0.000058
0.000102
0.000087
0.000115
0.000094
0.000113
0.000129
0.000152
0.000129
0.000144
0.000123
0.000144
0.000113
0.000160
0.000126
0.000113
0.000131
0.000121
0.000092
0.000121
0.000105
0.000139
0.000121
0.000115
0.000102
0.000129
0.000068
0.000073
0.000063
0.000052
0.000045
0.000058
0.000071
0.000108
0.000097
0.000113
0.000123
0.000149
0.000110
0.000144
0.000160
0.000136
0.000108
0.000087
0.000081
0.000068
0.000063
0.000073
0.000042
0.000076
0.000034
0.000050
0.000068
0.000092
0.000113
0.000115
0.000121
0.000113
0.000105
0.000097
0.000100
0.000134
0.000115
0.000136
0.000134
0.000113
0.000134
0.000134
0.000110
0.000110
0.000076
0.000089
0.000100
0.000089
0.000039
0.000063
0.000066
0.000081
0.000087
0.000115
0.000087
0.000084
0.000076
0.000092
0.000092
0.000092
0.000094
0.000123
0.000097
0.000066
0.000063
0.000055
0.000052
0.000060
0.000068
0.000073
0.000102
0.000092
0.000087
0.000113
0.000102
0.000094
0.000100
0.000105
0.000102
0.000089
0.000097
0.000115
0.000113
0.000102
0.000139
0.000105
0.000118
0.000123
0.000113
0.000113
0.000089
0.000071
0.000094
0.000089
0.000058
0.000097
0.000084
0.000100
0.000136
0.000108
0.000115
0.000126
0.000118
0.000129
0.000121
0.000144
0.000113
0.000134
0.000136
0.000142
0.000147
0.000144
0.000089
0.000129
0.000092
0.000092
0.000073
0.000060
0.000058
0.000073
0.000066
0.000066
0.000063
0.000073
0.000073
0.000081
0.000097
0.000110
0.000092
0.000126
0.000134
0.000142
0.000108
0.000121
0.000092
0.000123
0.000105
0.000087
0.000129
0.000110
0.000089
0.000152
0.000139
0.000152
0.000118
0.000092
0.000123
0.000118
0.000105
0.000121
0.000113
0.000100
0.000110
0.000121
0.000108
0.000102
0.000110
0.000094
0.000113
0.000113
0.000108
0.000123
0.000113
0.000157
0.000115
0.000129
0.000121
0.000136
0.000118
0.000155
0.000157
0.000136
0.000126
0.000131
0.000108
0.000115
0.000097
0.000097
0.000115
0.000118
0.000110
0.000139
0.000126
0.000136
0.000129
0.000147
0.000147
0.000108
0.000094
0.000089
0.000097
0.000102
0.000094
0.000123
0.000115
0.000139
0.000126
0.000108
0.000118
0.000126
0.000123
0.000121
0.000115
0.000115
0.000136
0.000126
0.000110
0.000147
0.000113
0.000108
0.000110
0.000121
0.000129
0.000121
0.000100
0.000126
0.000108
0.000118
0.000142
0.000147
0.000152
0.000147
0.000108
0.000147
0.000142
0.000136
0.000089
0.000102
0.000094
0.000097
0.000100
0.000118
0.000102
0.000115
0.000131
0.000118
0.000121
0.000139
0.000144
0.000136
0.000134
0.000139
0.000126
0.000149
0.000115
0.000123
0.000105
0.000100
0.000121
0.000131
0.000160
0.000134
0.000118
0.000097
0.000089
0.000084
0.000092
0.000092
0.000115
0.000097
0.000092
0.000108
0.000102
0.000136
0.000149
0.000139
0.000136
0.000144
0.000147
0.000170
0.000134
0.000121
0.000105
0.000115
0.000094
0.000100
0.000063
0.000100
0.000081
0.000073
0.000039
0.000076
0.000052
0.000094
0.000105
0.000102
0.000097
0.000105
0.000058
0.000081
0.000110
0.000097
0.000100
0.000121
0.000113
0.000126
0.000102
0.000094
0.000108
0.000110
0.000081
0.000081
0.000060
0.000102
0.000094
0.000081
0.000102
0.000115
0.000139
0.000163
0.000152
0.000144
0.000139
0.000149
0.000131
0.000144
0.000102
0.000126
0.000102
0.000118
0.000087
0.000113
0.000108
0.000113
0.000123
0.000115
0.000087
0.000092
0.000089
0.000100
0.000071
0.000076
0.000113
0.000100
0.000076
0.000105
0.000063
0.000084
0.000108
0.000071
0.000108
0.000129
0.000094
0.000134
0.000113
0.000155
0.000129
0.000113
0.000105
0.000129
0.000113
0.000102
0.000094
0.000094
0.000081
0.000108
0.000108
0.000134
0.000139
0.000136
0.000136
0.000176
0.000147
0.000176
0.000147
0.000173
0.000152
0.000134
0.000131
0.000126
0.000113
0.000081
0.000094
0.000108
0.000113
0.000129
0.000115
0.000160
0.000126
0.000118
0.000118
0.000131
0.000097
0.000100
0.000087
0.000076
0.000097
0.000118
0.000113
0.000129
0.000102
0.000113
0.000115
0.000113
0.000134
0.000142
0.000123
0.000121
0.000123
0.000108
0.000102
0.000092
0.000092
0.000071
0.000079
0.000081
0.000055
0.000108
0.000081
0.000115
0.000144
0.000152
0.000155
0.000134
0.000087
0.000136
0.000131
0.000108
0.000110
0.000105
0.000094
0.000084
0.000102
0.000094
0.000084
0.000068
0.000092
0.000076
0.000079
0.000076
0.000079
0.000105
0.000113
0.000129
0.000123
0.000157
0.000144
0.000105
0.000100
0.000105
0.000102
0.000100
0.000126
0.000134
0.000115
0.000097
0.000092
0.000102
0.000076
0.000110
0.000092
0.000115
0.000092
0.000094
0.000076
0.000084
0.000110
0.000073
0.000097
0.000126
0.000097
0.000129
0.000118
0.000136
0.000094
0.000097
0.000066
0.000079
0.000058
0.000066
0.000073
0.000060
0.000076
0.000094
0.000102
0.000131
0.000134
0.000173
0.000149
0.000139
0.000110
0.000134
0.000165
0.000168
0.000147
0.000163
0.000142
0.000108
0.000136
0.000102
0.000129
0.000110
0.000097
0.000097
0.000063
0.000102
0.000073
0.000087
0.000118
0.000081
0.000089
0.000115
0.000118
0.000139
0.000144
0.000152
0.000155
0.000147
0.000129
0.000105
0.000105
0.000121
0.000126
0.000121
0.000087
0.000100
0.000087
0.000118
0.000073
0.000100
0.000094
0.000081
0.000097
0.000089
0.000073
0.000102
0.000102
0.000100
0.000136
0.000142
0.000115
0.000113
0.000149
0.000142
0.000147
0.000147
0.000142
0.000147
0.000115
0.000118
0.000123
0.000105
0.000063
0.000115
0.000108
0.000097
0.000105
0.000084
0.000092
0.000121
0.000118
0.000134
0.000134
0.000139
0.000129
0.000142
0.000129
0.000108
0.000079
0.000087
0.000089
0.000068
0.000063
0.000084
0.000076
0.000100
0.000100
0.000136
0.000121
0.000134
0.000131
0.000100
0.000110
0.000110
0.000129
0.000123
0.000105
0.000131
0.000121
0.000136
0.000113
0.000136
0.000134
0.000142
0.000121
0.000118
0.000126
0.000134
0.000076
0.000081
0.000073
0.000071
0.000076
0.000108
0.000108
0.000089
0.000084
0.000073
0.000081
0.000068
0.000092
0.000100
0.000113
0.000115
0.000092
0.000115
0.000097
0.000100
0.000108
0.000108
0.000113
0.000100
0.000089
0.000100
0.000068
0.000066
0.000097
0.000094
0.000076
0.000079
0.000100
0.000102
0.000110
0.000113
0.000123
0.000118
0.000118
0.000113
0.000097
0.000110
0.000126
0.000121
0.000118
0.000102
0.000089
0.000073
0.000063
0.000052
0.000055
0.000079
0.000076
0.000094
0.000079
0.000092
0.000108
0.000100
0.000105
0.000084
0.000084
0.000089
0.000081
0.000089
0.000094
0.000068
0.000097
0.000113
0.000094
0.000131
0.000110
0.000089
0.000052
0.000045
0.000029
0.000052
0.000013
0.000076
0.000081
0.000089
0.000121
0.000115
0.000136
0.000129
0.000108
0.000152
0.000110
0.000113
0.000097
0.000089
0.000094
0.000121
0.000087
0.000097
0.000097
0.000084
0.000108
0.000097
0.000079
0.000089
0.000066
0.000100
0.000105
0.000108
0.000089
0.000102
0.000089
0.000087
0.000092
0.000108
0.000066
0.000081
0.000055
0.000045
0.000058
0.000039
0.000039
0.000060
0.000055
0.000063
0.000079
0.000100
0.000092
0.000110
0.000089
0.000102
0.000084
0.000073
0.000076
0.000068
0.000087
0.000102
0.000113
0.000131
0.000121
0.000121
0.000084
0.000092
0.000029
0.000045
0.000050
0.000087
0.000097
0.000089
0.000100
0.000126
0.000110
0.000115
0.000113
0.000123
0.000144
0.000139
0.000149
0.000142
0.000149
0.000165
0.000136
0.000149
0.000115
0.000126
0.000147
0.000123
0.000113
0.000110
0.000121
0.000110
0.000113
0.000123
0.000097
0.000094
0.000110
0.000139
0.000131
0.000168
0.000134
0.000147
0.000147
0.000144
0.000147
0.000152
0.000155
0.000136
0.000149
0.000160
0.000160
0.000139
0.000131
0.000113
0.000113
0.000081
0.000087
0.000121
0.000100
0.000084
0.000100
0.000105
0.000089
0.000108
0.000110
0.000118
0.000113
0.000113
0.000110
0.000121
0.000089
0.000129
0.000149
0.000129
0.000131
0.000113
0.000087
0.000113
0.000076
0.000076
0.000097
0.000102
0.000073
0.000089
0.000050
0.000097
0.000076
0.000084
0.000092
0.000123
0.000110
0.000087
0.000100
0.000071
0.000071
0.000126
0.000087
0.000126
0.000126
0.000126
0.000134
0.000160
0.000115
0.000126
0.000108
0.000131
0.000136
0.000152
0.000142
0.000147
0.000105
0.000100
0.000102
0.000084
0.000100
0.000113
0.000097
0.000123
0.000123
0.000144
0.000110
0.000139
0.000123
0.000173
0.000129
0.000129
0.000129
0.000136
0.000131
0.000139
0.000155
0.000149
0.000149
0.000149
0.000147
0.000163
0.000113
0.000147
0.000121
0.000118
0.000129
0.000139
0.000110
0.000118
0.000121
0.000102
0.000118
0.000102
0.000084
0.000108
0.000052
0.000068
0.000076
0.000092
0.000100
0.000126
0.000118
0.000136
0.000136
0.000139
0.000123
0.000157
0.000105
0.000142
0.000113
0.000105
0.000097
0.000110
0.000097
0.000092
0.000089
0.000084
0.000105
0.000115
0.000087
0.000126
0.000105
0.000092
0.000118
0.000108
0.000115
0.000160
0.000147
0.000142
0.000123
0.000118
0.000097
0.000108
0.000087
0.000144
0.000094
0.000100
0.000102
0.000100
0.000092
0.000126
0.000113
0.000126
0.000108
0.000134
0.000134
0.000136
0.000131
0.000134
0.000139
0.000136
0.000147
0.000147
0.000108
0.000147
0.000142
0.000131
0.000129
0.000136
0.000121
0.000147
0.000115
0.000136
0.000123
0.000123
0.000110
0.000113
0.000105
0.000134
0.000139
0.000115
0.000134
0.000136
0.000118
0.000136
0.000163
0.000126
0.000139
0.000139
0.000100
0.000129
0.000121
0.000108
0.000121
0.000094
0.000081
0.000123
0.000108
0.000129
0.000136
0.000129
0.000139
0.000121
0.000105
0.000126
0.000092
0.000050
0.000081
0.000066
0.000079
0.000100
0.000087
0.000113
0.000105
0.000092
0.000110
0.000102
0.000115
0.000129
0.000097
0.000113
0.000126
0.000115
0.000129
0.000131
0.000102
0.000115
0.000118
0.000115
0.000079
0.000129
0.000155
0.000123
0.000149
0.000142
0.000144
0.000184
0.000139
0.000136
0.000094
0.000092
0.000092
0.000105
0.000071
0.000139
0.000110
0.000131
0.000092
0.000126
0.000102
0.000121
0.000123
0.000115
0.000123
0.000102
0.000100
0.000126
0.000139
0.000121
0.000123
0.000142
0.000121
0.000123
0.000118
0.000108
0.000118
0.000060
0.000058
0.000073
0.000045
0.000102
0.000079
0.000079
0.000079
0.000102
0.000102
0.000113
0.000123
0.000136
0.000136
0.000142
0.000129
0.000142
0.000134
0.000129
0.000113
0.000136
0.000131
0.000149
0.000121
0.000152
0.000123
0.000131
0.000144
0.000134
0.000126
0.000121
0.000123
0.000139
0.000155
0.000152
0.000126
0.000173
0.000136
0.000165
0.000129
0.000149
0.000121
0.000142
0.000079
0.000079
0.000081
0.000084
0.000108
0.000123
0.000092
0.000105
0.000102
0.000126
0.000113
0.000126
0.000110
0.000121
0.000121
0.000131
0.000123
0.000136
0.000139
0.000147
0.000123
0.000155
0.000142
0.000102
0.000102
0.000129
0.000094
0.000131
0.000108
0.000118
0.000118
0.000110
0.000100
0.000129
0.000110
0.000149
0.000142
0.000160
0.000155
0.000168
0.000139
0.000181
0.000139
0.000149
0.000126
0.000121
0.000084
0.000118
0.000094
0.000087
0.000110
0.000118
0.000105
0.000160
0.000102
0.000126
0.000173
0.000160
0.000168
0.000129
0.000129
0.000129
0.000134
0.000142
0.000102
0.000136
0.000121
0.000149
0.000123
0.000144
0.000147
0.000129
0.000123
0.000147
0.000123
0.000108
0.000081
0.000108
0.000115
0.000102
0.000110
0.000108
0.000079
0.000113
0.000100
0.000129
0.000097
0.000118
0.000100
0.000121
0.000108
0.000134
0.000113
0.000118
0.000113
0.000089
0.000068
0.000102
0.000094
0.000118
0.000094
0.000134
0.000134
0.000100
0.000113
0.000110
0.000100
0.000126
0.000123
0.000136
0.000147
0.000129
0.000102
0.000126
0.000121
0.000073
0.000084
0.000073
0.000071
0.000094
0.000076
0.000108
0.000121
0.000115
0.000129
0.000131
0.000134
0.000147
0.000152
0.000142
0.000129
0.000147
0.000118
0.000152
0.000147
0.000123
0.000144
0.000126
0.000110
0.000123
0.000097
0.000131
0.000126
0.000134
0.000100
0.000136
0.000131
0.000123
0.000115
0.000131
0.000136
0.000136
0.000131
0.000170
0.000131
0.000152
0.000155
0.000163
0.000126
0.000163
0.000139
0.000149
0.000165
0.000142
0.000129
0.000118
0.000102
0.000123
0.000126
0.000115
0.000115
0.000136
0.000102
0.000155
0.000131
0.000097
0.000113
0.000073
0.000076
0.000097
0.000076
0.000100
0.000102
0.000136
0.000147
0.000147
0.000136
0.000136
0.000131
0.000152
0.000134
0.000149
0.000142
0.000152
0.000131
0.000149
0.000168
0.000149
0.000155
0.000157
0.000147
0.000160
0.000131
0.000163
0.000168
0.000176
0.000142
0.000152
0.000165
0.000144
0.000136
0.000139
0.000105
0.000136
0.000108
0.000115
0.000136
0.000121
0.000097
0.000108
0.000115
0.000089
0.000123
0.000136
0.000110
0.000126
0.000100
0.000144
0.000136
0.000121
0.000147
0.000147
0.000144
0.000155
0.000144
0.000155
0.000131
0.000131
0.000126
0.000134
0.000123
0.000110
0.000110
0.000105
0.000118
0.000149
0.000136
0.000147
0.000149
0.000155
0.000160
0.000165
0.000152
0.000160
0.000121
0.000144
0.000123
0.000113
0.000084
0.000081
0.000076
0.000052
0.000045
0.000066
0.000079
0.000092
0.000113
0.000121
0.000126
0.000102
0.000123
0.000139
0.000102
0.000131
0.000113
0.000118
0.000131
0.000115
0.000102
0.000129
0.000100
0.000102
0.000129
0.000142
0.000121
0.000142
0.000149
0.000144
0.000149
0.000152
0.000139
0.000129
0.000118
0.000123
0.000100
0.000087
0.000073
0.000079
0.000068
0.000105
0.000129
0.000123
0.000126
0.000168
0.000139
0.000142
0.000131
0.000129
0.000105
0.000089
0.000055
0.000076
0.000068
0.000084
0.000073
0.000084
0.000089
0.000092
0.000055
0.000087
0.000110
0.000105
0.000134
0.000149
0.000139
0.000139
0.000131
0.000142
0.000152
0.000142
0.000147
0.000134
0.000134
0.000147
0.000142
0.000121
0.000097
0.000102
0.000097
0.000115
0.000105
0.000123
0.000108
0.000142
0.000136
0.000110
0.000108
0.000129
0.000100
0.000139
0.000121
0.000157
0.000142
0.000118
0.000126
0.000115
0.000108
0.000110
0.000081
0.000105
0.000110
0.000123
0.000115
0.000126
0.000115
0.000147
0.000144
0.000123
0.000131
0.000105
0.000092
0.000118
0.000113
0.000131
0.000113
0.000110
0.000118
0.000131
0.000084
0.000100
0.000073
0.000092
0.000068
0.000108
0.000115
0.000068
0.000050
0.000073
0.000076
0.000097
0.000126
0.000126
0.000118
0.000126
0.000131
0.000149
0.000134
0.000152
0.000160
0.000121
0.000152
0.000173
0.000139
0.000149
0.000131
0.000121
0.000131
0.000105
0.000115
0.000142
0.000123
0.000149
0.000118
0.000131
0.000121
0.000094
0.000092
0.000142
0.000102
0.000102
0.000126
0.000081
0.000094
0.000134
0.000102
0.000129
0.000139
0.000126
0.000131
0.000160
0.000149
0.000152
0.000131
0.000129
0.000123
0.000115
0.000113
0.000108
0.000097
0.000110
0.000115
0.000129
0.000100
0.000113
0.000094
0.000097
0.000113
0.000113
0.000131
0.000142
0.000108
0.000123
0.000108
0.000152
0.000139
0.000139
0.000149
0.000149
0.000118
0.000139
0.000149
0.000131
0.000115
0.000131
0.000094
0.000108
0.000113
0.000097
0.000108
0.000134
0.000100
0.000136
0.000123
0.000123
0.000144
0.000121
0.000118
0.000136
0.000110
0.000134
0.000155
0.000144
0.000126
0.000136
0.000163
0.000134
0.000123
0.000134
0.000131
0.000136
0.000123
0.000123
0.000118
0.000139
0.000144
0.000142
0.000136
0.000144
0.000131
0.000144
0.000136
0.000123
0.000131
0.000144
0.000105
0.000110
0.000115
0.000115
0.000097
0.000076
0.000097
0.000108
0.000102
0.000100
0.000110
0.000136
0.000108
0.000139
0.000142
0.000126
0.000136
0.000113
0.000123
0.000129
0.000105
0.000102
0.000121
0.000102
0.000134
0.000139
0.000129
0.000134
0.000123
0.000121
0.000129
0.000134
0.000102
0.000136
0.000131
0.000134
0.000147
0.000131
0.000118
0.000152
0.000115
0.000147
0.000152
0.000126
0.000139
0.000121
0.000115
0.000118
0.000079
0.000110
0.000108
0.000105
0.000105
0.000129
0.000129
0.000113
0.000139
0.000136
0.000118
0.000118
0.000092
0.000108
0.000118
0.000123
0.000118
0.000157
0.000126
0.000118
0.000139
0.000123
0.000131
0.000108
0.000102
0.000136
0.000094
0.000094
0.000142
0.000126
0.000142
0.000168
0.000115
0.000155
0.000123
0.000121
0.000110
0.000129
0.000136
0.000144
0.000123
0.000170
0.000168
0.000157
0.000144
0.000163
0.000160
0.000155
0.000123
0.000142
0.000113
0.000139
0.000139
0.000118
0.000131
0.000113
0.000079
0.000129
0.000136
0.000126
0.000134
0.000147
0.000144
0.000157
0.000115
0.000139
0.000157
0.000155
0.000136
0.000126
0.000136
0.000155
0.000142
0.000123
0.000170
0.000157
0.000121
0.000113
0.000142
0.000136
0.000129
0.000136
0.000142
0.000144
0.000102
0.000129
0.000105
0.000147
0.000113
0.000136
0.000110
0.000121
0.000131
0.000149
0.000149
0.000147
0.000118
0.000147
0.000129
0.000147
0.000123
0.000131
0.000134
0.000134
0.000087
0.000102
0.000092
0.000089
0.000102
0.000115
0.000115
0.000139
0.000144
0.000121
0.000123
0.000139
0.000108
0.000118
0.000087
0.000097
0.000113
0.000121
0.000121
0.000129
0.000136
0.000147
0.000155
0.000121
0.000149
0.000136
0.000147
0.000152
0.000110
0.000129
0.000136
0.000136
0.000115
0.000134
0.000126
0.000136
0.000123
0.000157
0.000118
0.000136
0.000113
0.000157
0.000131
0.000118
0.000084
0.000108
0.000092
0.000097
0.000123
0.000131
0.000147
0.000149
0.000113
0.000134
0.000142
0.000136
0.000123
0.000123
0.000118
0.000129
0.000100
0.000100
0.000131
0.000105
0.000068
0.000063
0.000092
0.000081
0.000089
0.000110
0.000134
0.000157
0.000126
0.000181
0.000155
0.000160
0.000134
0.000131
0.000129
0.000129
0.000129
0.000155
0.000126
0.000092
0.000102
0.000136
0.000115
0.000115
0.000142
0.000110
t0(sec) = 0.000000E+0
dt(sec) = 4.000000E-10
F2:INSP "
DESCRIPTOR_NAME    : WAVEDESC           
TEMPLATE_NAME      : LECROY_2_3         
COMM_TYPE          : word               
COMM_ORDER         : HIFIRST            
WAVE_DESCRIPTOR    : 346                
USER_TEXT          : 0                  
RES_DESC1          : 0                  
TRIGTIME_ARRAY     : 0                  
RIS_TIME_ARRAY     : 0                  
RES_ARRAY1         : 0                  
WAVE_ARRAY_1       : 10002              
WAVE_ARRAY_2       : 0                  
RES_ARRAY2         : 0                  
RES_ARRAY3         : 0                  
INSTRUMENT_NAME    : LECROYHDO6104      
INSTRUMENT_NUMBER  : 6308               
TRACE_LABEL        :                    
RESERVED1          : 5001               
RESERVED2          : 0                  
WAVE_ARRAY_COUNT   : 5001               
PNTS_PER_SCREEN    : 5000               
FIRST_VALID_PNT    : 0                  
LAST_VALID_PNT     : 5000               
FIRST_POINT        : 0                  
SPARSING_FACTOR    : 1                  
SEGMENT_INDEX      : 0                  
SUBARRAY_COUNT     : 1                  
SWEEPS_PER_ACQ     : 200                
POINTS_PER_PAIR    : 0                  
PAIR_OFFSET        : 0                  
VERTICAL_GAIN      : 2.6238e-006        
VERTICAL_OFFSET    : 4.2500e-002        
MAX_VALUE          : 3.2512e+004        
MIN_VALUE          : -2.5373e+004       
NOMINAL_BITS       : 16                 
NOM_SUBARRAY_COUNT : 1                  
HORIZ_INTERVAL     : 4.0000e-010        
HORIZ_OFFSET       : -2.00000000e-007   
PIXEL_OFFSET       : -2.00000000e-007   
VERTUNIT           : Unit Name = V
HORUNIT            : Unit Name = S
HORIZ_UNCERTAINTY  : 1.0000e-012        
TRIGGER_TIME       : Date = APR 17, 2024, Time = 19:29:28.611162721
ACQ_DURATION       : 9.9989e+000        
RECORD_TYPE        : single_sweep       
PROCESSING_DONE    : no_processing      
RESERVED5          : 0                  
RIS_SWEEPS         : 1                  
TIMEBASE           : 200_ns/div         
VERT_COUPLING      : DC_50_Ohms         
PROBE_ATT          : 1.0000e+000        
FIXED_VERT_GAIN    : 20_mV/div          
BANDWIDTH_LIMIT    : off                
VERTICAL_VERNIER   : 1.0500e+000        
ACQ_VERT_OFFSET    : 0.0000e+000        
WAVE_SOURCE        : UNKNOWN            
"
0.001412
0.001427
0.001412
0.001425
0.001406
0.001433
0.001409
0.001398
0.001393
0.001393
0.001383
0.001385
0.001401
0.001409
0.001393
0.001406
0.001417
0.001435
0.001414
0.001388
0.001417
0.001393
0.001417
0.001427
0.001401
0.001414
0.001396
0.001422
0.001419
0.001409
0.001422
0.001401
0.001401
0.001430
0.001438
0.001422
0.001430
0.001419
0.001404
0.001375
0.001409
0.001398
0.001377
0.001391
0.001440
0.001419
0.001409
0.001422
0.001422
0.001417
0.001430
0.001417
0.001427
0.001433
0.001414
0.001404
0.001412
0.001427
0.001422
0.001391
0.001427
0.001443
0.001409
0.001406
0.001414
0.001412
0.001409
0.001404
0.001404
0.001422
0.001417
0.001427
0.001414
0.001419
0.001438
0.001398
0.001414
0.001419
0.001393
0.001412
0.001409
0.001419
0.001435
0.001419
0.001427
0.001414
0.001406
0.001412
0.001417
0.001404
0.001409
0.001383
0.001396
0.001375
0.001404
0.001417
0.001401
0.001406
0.001396
0.001385
0.001388
0.001414
0.001404
0.001412
0.001412
0.001401
0.001404
0.001414
0.001419
0.001417
0.001425
0.001443
0.001406
0.001380
0.001417
0.001404
0.001412
0.001417
0.001398
0.001412
0.001422
0.001417
0.001412
0.001393
0.001414
0.001401
0.001404
0.001406
0.001425
0.001404
0.001414
0.001391
0.001419
0.001393
0.001406
0.001422
0.001448
0.001401
0.001422
0.001414
0.001409
0.001427
0.001419
0.001425
0.001425
0.001422
0.001412
0.001412
0.001406
0.001433
0.001412
0.001401
0.001430
0.001422
0.001401
0.001404
0.001417
0.001427
0.001422
0.001396
0.001425
0.001419
0.001430
0.001409
0.001419
0.001433
0.001422
0.001406
0.001427
0.001430
0.001427
0.001422
0.001412
0.001427
0.001435
0.001409
0.001419
0.001406
0.001417
0.001417
0.001404
0.001417
0.001409
0.001427
0.001433
0.001422
0.001419
0.001425
0.001433
0.001427
0.001422
0.001406
0.001412
0.001406
0.001425
0.001446
0.001425
0.001427
0.001404
0.001419
0.001417
0.001422
0.001412
0.001409
0.001412
0.001412
0.001401
0.001380
0.001412
0.001391
0.001406
0.001425
0.001412
0.001409
0.001406
0.001401
0.001414
0.001412
0.001417
0.001419
0.001401
0.001427
0.001414
0.001412
0.001401
0.001398
0.001370
0.001419
0.001409
0.001417
0.001417
0.001370
0.001422
0.001417
0.001433
0.001430
0.001427
0.001440
0.001414
0.001406
0.001409
0.001396
0.001419
0.001406
0.001409
0.001414
0.001414
0.001393
0.001430
0.001404
0.001393
0.001396
0.001391
0.001401
0.001435
0.001412
0.001425
0.001435
0.001412
0.001393
0.001417
0.001430
0.001412
0.001412
0.001433
0.001433
0.001422
0.001419
0.001425
0.001406
0.001419
0.001385
0.001377
0.001404
0.001401
0.001425
0.001404
0.001412
0.001440
0.001427
0.001440
0.001446
0.001412
0.001414
0.001391
0.001406
0.001422
0.001372
0.001396
0.001372
0.001385
0.001414
0.001401
0.001422
0.001430
0.001419
0.001417
0.001414
0.001404
0.001383
0.001417
0.001427
0.001414
0.001393
0.001417
0.001422
0.001414
0.001417
0.001443
0.001419
0.001414
0.001427
0.001419
0.001414
0.001414
0.001412
0.001435
0.001417
0.001427
0.001422
0.001419
0.001422
0.001425
0.001433
0.001427
0.001412
0.001398
0.001422
0.001435
0.001427
0.001404
0.001398
0.001401
0.001425
0.001409
0.001417
0.001417
0.001398
0.001398
0.001401
0.001409
0.001412
0.001412
0.001396
0.001412
0.001412
0.001396
0.001385
0.001453
0.001404
0.001406
0.001414
0.001404
0.001440
0.001398
0.001422
0.001412
0.001414
0.001430
0.001419
0.001398
0.001422
0.001393
0.001404
0.001412
0.001396
0.001406
0.001398
0.001422
0.001417
0.001417
0.001419
0.001422
0.001435
0.001425
0.001414
0.001404
0.001412
0.001419
0.001406
0.001406
0.001396
0.001396
0.001367
0.001367
0.001404
0.001404
0.001425
0.001427
0.001427
0.001417
0.001422
0.001419
0.001414
0.001422
0.001409
0.001417
0.001425
0.001404
0.001388
0.001388
0.001409
0.001409
0.001388
0.001388
0.001406
0.001398
0.001419
0.001398
0.001388
0.001372
0.001401
0.001406
0.001422
0.001433
0.001440
0.001433
0.001422
0.001398
0.001380
0.001383
0.001427
0.001430
0.001417
0.001422
0.001404
0.001406
0.001417
0.001414
0.001391
0.001370
0.001383
0.001412
0.001433
0.001433
0.001396
0.001430
0.001412
0.001435
0.001427
0.001433
0.001422
0.001375
0.001385
0.001401
0.001406
0.001425
0.001427
0.001422
0.001430
0.001433
0.001412
0.001422
0.001412
0.001417
0.001391
0.001396
0.001404
0.001396
0.001391
0.001388
0.001427
0.001406
0.001412
0.001404
0.001401
0.001417
0.001398
0.001396
0.001412
0.001425
0.001425
0.001435
0.001427
0.001404
0.001356
0.001375
0.001346
0.001364
0.001359
0.001370
0.001409
0.001435
0.001438
0.001438
0.001451
0.001446
0.001427
0.001425
0.001417
0.001388
0.001372
0.001367
0.001409
0.001451
0.001417
0.001448
0.001456
0.001440
0.001448
0.001396
0.001412
0.001393
0.001406
0.001383
0.001370
0.001380
0.001367
0.001401
0.001422
0.001422
0.001443
0.001453
0.001451
0.001409
0.001401
0.001401
0.001406
0.001435
0.001414
0.001480
0.001430
0.001461
0.001443
0.001438
0.001451
0.001409
0.001427
0.001380
0.001404
0.001388
0.001398
0.001401
0.001412
0.001440
0.001417
0.001425
0.001401
0.001433
0.001406
0.001404
0.001422
0.001398
0.001393
0.001349
0.001370
0.001393
0.001396
0.001414
0.001464
0.001435
0.001443
0.001485
0.001433
0.001446
0.001396
0.001377
0.001317
0.001217
0.001099
0.000979
0.000800
0.000441
-0.000113
-0.001107
-0.002461
-0.004114
-0.006001
-0.007911
-0.009789
-0.011862
-0.013946
-0.015567
-0.016753
-0.017559
-0.018068
-0.018183
-0.018306
-0.018485
-0.018556
-0.018603
-0.018776
-0.018773
-0.018758
-0.018826
-0.018905
-0.018876
-0.018322
-0.017926
-0.017910
-0.017684
-0.017490
-0.017383
-0.016882
-0.016165
-0.015898
-0.015806
-0.015614
-0.015318
-0.015197
-0.014951
-0.014562
-0.014226
-0.013709
-0.013127
-0.012573
-0.012127
-0.011873
-0.011896
-0.011807
-0.011574
-0.011385
-0.011012
-0.010561
-0.010396
-0.010621
-0.010865
-0.010674
-0.010285
-0.010262
-0.010464
-0.010367
-0.009999
-0.009559
-0.009094
-0.008716
-0.008551
-0.008554
-0.008315
-0.007877
-0.007659
-0.007659
-0.007565
-0.007549
-0.007738
-0.007900
-0.007685
-0.007523
-0.007772
-0.007835
-0.007538
-0.007559
-0.007711
-0.007339
-0.006796
-0.006617
-0.006581
-0.006384
-0.006421
-0.006712
-0.006728
-0.006491
-0.006552
-0.006793
-0.006507
-0.006145
-0.006239
-0.006200
-0.005872
-0.005712
-0.005591
-0.005174
-0.004875
-0.004964
-0.005069
-0.005151
-0.005284
-0.005678
-0.005856
-0.005744
-0.005728
-0.005557
-0.005098
-0.004794
-0.004954
-0.005214
-0.005256
-0.005200
-0.005153
-0.005056
-0.004951
-0.005080
-0.005261
-0.005227
-0.004972
-0.004720
-0.004618
-0.004628
-0.004618
-0.004495
-0.004363
-0.004295
-0.004282
-0.004201
-0.004059
-0.004083
-0.004190
-0.004172
-0.004020
-0.003962
-0.004083
-0.004122
-0.003994
-0.003894
-0.003868
-0.003870
-0.003849
-0.003860
-0.003773
-0.003660
-0.003631
-0.003736
-0.003718
-0.003605
-0.003532
-0.003492
-0.003374
-0.003277
-0.003180
-0.002986
-0.002860
-0.002947
-0.003041
-0.003054
-0.003065
-0.003149
-0.002962
-0.002689
-0.002674
-0.002703
-0.002666
-0.002611
-0.002574
-0.002564
-0.002705
-0.002773
-0.002944
-0.003154
-0.003062
-0.002632
-0.002506
-0.002564
-0.002543
-0.002600
-0.002776
-0.002878
-0.002787
-0.002703
-0.002574
-0.002359
-0.002204
-0.002264
-0.002409
-0.002487
-0.002532
-0.002508
-0.002377
-0.002278
-0.002225
-0.002233
-0.002338
-0.002516
-0.002710
-0.002836
-0.002724
-0.002333
-0.002097
-0.002110
-0.002060
-0.001939
-0.001813
-0.001742
-0.001779
-0.001915
-0.002107
-0.002194
-0.002217
-0.002159
-0.002162
-0.002243
-0.002270
-0.002149
-0.002002
-0.002020
-0.002110
-0.002110
-0.002031
-0.001942
-0.001776
-0.001564
-0.001493
-0.001629
-0.001858
-0.001968
-0.002005
-0.002110
-0.002094
-0.001837
-0.001569
-0.001535
-0.001517
-0.001464
-0.001514
-0.001608
-0.001661
-0.001708
-0.001598
-0.001480
-0.001540
-0.001666
-0.001703
-0.001614
-0.001561
-0.001556
-0.001540
-0.001496
-0.001464
-0.001420
-0.001370
-0.001459
-0.001648
-0.001774
-0.001811
-0.001921
-0.001918
-0.001687
-0.001519
-0.001538
-0.001535
-0.001414
-0.001231
-0.001055
-0.001113
-0.001252
-0.001309
-0.001231
-0.001183
-0.001317
-0.001601
-0.001716
-0.001666
-0.001645
-0.001656
-0.001551
-0.001525
-0.001635
-0.001546
-0.001320
-0.001286
-0.001383
-0.001383
-0.001383
-0.001378
-0.001273
-0.001126
-0.001162
-0.001336
-0.001351
-0.001063
-0.000897
-0.000981
-0.000974
-0.000895
-0.000987
-0.001107
-0.001042
-0.000960
-0.001071
-0.001228
-0.001176
-0.001005
-0.000863
-0.000758
-0.000769
-0.000834
-0.000837
-0.000800
-0.000795
-0.000803
-0.000769
-0.000735
-0.000779
-0.000882
-0.000884
-0.000848
-0.000887
-0.000824
-0.000716
-0.000661
-0.000779
-0.000845
-0.000706
-0.000590
-0.000617
-0.000504
-0.000428
-0.000562
-0.000695
-0.000585
-0.000501
-0.000504
-0.000583
-0.000567
-0.000590
-0.000693
-0.000813
-0.000884
-0.000874
-0.000840
-0.000701
-0.000509
-0.000409
-0.000467
-0.000583
-0.000551
-0.000630
-0.000908
-0.000869
-0.000732
-0.000735
-0.000680
-0.000572
-0.000569
-0.000669
-0.000522
-0.000336
-0.000373
-0.000478
-0.000438
-0.000383
-0.000444
-0.000457
-0.000449
-0.000575
-0.000709
-0.000656
-0.000538
-0.000598
-0.000730
-0.000703
-0.000630
-0.000672
-0.000695
-0.000617
-0.000548
-0.000585
-0.000567
-0.000551
-0.000575
-0.000593
-0.000593
-0.000562
-0.000562
-0.000562
-0.000585
-0.000677
-0.000777
-0.000840
-0.000837
-0.000745
-0.000554
-0.000512
-0.000480
-0.000357
-0.000194
-0.000202
-0.000328
-0.000391
-0.000428
-0.000289
-0.000134
-0.000053
-0.000108
-0.000202
-0.000252
-0.000354
-0.000328
-0.000270
-0.000257
-0.000357
-0.000496
-0.000601
-0.000596
-0.000407
-0.000205
-0.000105
-0.000116
-0.000068
-0.000068
-0.000192
-0.000289
-0.000352
-0.000381
-0.000310
-0.000173
-0.000228
-0.000270
-0.000186
-0.000144
-0.000131
-0.000186
-0.000215
-0.000302
-0.000352
-0.000383
-0.000428
-0.000425
-0.000357
-0.000228
-0.000118
-0.000147
-0.000108
-0.000092
-0.000142
-0.000192
-0.000223
-0.000228
-0.000220
-0.000234
-0.000220
-0.000218
-0.000234
-0.000197
-0.000171
-0.000207
-0.000273
-0.000312
-0.000199
-0.000084
-0.000092
-0.000158
-0.000155
-0.000081
-0.000013
0.000003
0.000010
-0.000095
-0.000202
-0.000194
-0.000089
-0.000076
-0.000205
-0.000328
-0.000357
-0.000299
-0.000194
-0.000134
-0.000137
-0.000134
-0.000026
-0.000092
-0.000207
-0.000179
-0.000113
-0.000102
-0.000071
0.000060
0.000076
-0.000123
-0.000289
-0.000181
-0.000055
-0.000202
-0.000268
-0.000223
-0.000215
-0.000236
-0.000270
-0.000270
-0.000262
-0.000186
-0.000097
0.000026
0.000026
-0.000066
-0.000286
-0.000328
-0.000286
-0.000297
-0.000215
-0.000066
0.000034
-0.000026
-0.000105
-0.000142
-0.000118
-0.000199
-0.000289
-0.000223
-0.000181
-0.000144
-0.000108
-0.000066
0.000016
0.000013
0.000003
-0.000000
0.000037
0.000031
0.000121
0.000231
0.000270
0.000299
0.000352
0.000304
0.000168
0.000052
-0.000034
-0.000000
-0.000008
0.000058
0.000107
0.000168
0.000191
0.000223
0.000226
0.000170
0.000199
0.000254
0.000338
0.000333
0.000186
-0.000087
-0.000346
-0.000459
-0.000465
-0.000318
-0.000108
0.000058
0.000052
-0.000039
-0.000042
0.000063
0.000073
0.000092
0.000128
0.000097
0.000052
-0.000000
-0.000084
-0.000173
-0.000089
0.000121
0.000205
0.000144
0.000194
0.000315
0.000367
0.000302
0.000281
0.000291
0.000273
0.000341
0.000438
0.000417
0.000323
0.000294
0.000323
0.000283
0.000223
0.000186
0.000155
0.000178
0.000118
0.000016
0.000008
0.000060
0.000079
0.000115
0.000202
0.000273
0.000275
0.000149
-0.000008
-0.000026
0.000123
0.000296
0.000291
0.000102
-0.000013
0.000013
0.000055
0.000047
-0.000013
-0.000024
-0.000034
-0.000045
0.000066
0.000139
0.000107
0.000121
0.000126
0.000173
0.000205
0.000197
0.000191
0.000047
-0.000016
0.000076
0.000223
0.000273
0.000268
0.000226
0.000194
0.000178
0.000118
0.000110
0.000236
0.000241
0.000068
0.000126
0.000231
0.000254
0.000173
0.000233
0.000331
0.000333
0.000289
0.000325
0.000428
0.000446
0.000462
0.000449
0.000399
0.000338
0.000323
0.000262
0.000168
0.000157
0.000184
0.000294
0.000383
0.000441
0.000454
0.000414
0.000393
0.000349
0.000226
0.000068
-0.000053
0.000034
0.000199
0.000249
0.000270
0.000352
0.000456
0.000517
0.000564
0.000540
0.000496
0.000380
0.000265
0.000362
0.000485
0.000464
0.000433
0.000388
0.000299
0.000249
0.000320
0.000441
0.000501
0.000517
0.000546
0.000517
0.000493
0.000438
0.000331
0.000341
0.000380
0.000443
0.000365
0.000257
0.000241
0.000302
0.000359
0.000409
0.000428
0.000462
0.000480
0.000367
0.000236
0.000226
0.000244
0.000199
0.000278
0.000393
0.000354
0.000236
0.000260
0.000333
0.000294
0.000236
0.000328
0.000378
0.000241
0.000215
0.000226
0.000215
0.000289
0.000341
0.000399
0.000391
0.000346
0.000352
0.000289
0.000165
0.000212
0.000362
0.000472
0.000543
0.000664
0.000640
0.000580
0.000512
0.000446
0.000333
0.000341
0.000433
0.000467
0.000485
0.000470
0.000459
0.000454
0.000525
0.000698
0.000677
0.000590
0.000546
0.000467
0.000407
0.000393
0.000480
0.000538
0.000470
0.000357
0.000362
0.000372
0.000367
0.000349
0.000409
0.000480
0.000496
0.000472
0.000467
0.000472
0.000488
0.000483
0.000412
0.000338
0.000189
0.000157
0.000273
0.000336
0.000346
0.000357
0.000420
0.000527
0.000609
0.000588
0.000535
0.000533
0.000456
0.000380
0.000441
0.000540
0.000559
0.000498
0.000493
0.000525
0.000527
0.000430
0.000401
0.000386
0.000375
0.000417
0.000512
0.000525
0.000470
0.000446
0.000480
0.000480
0.000378
0.000281
0.000328
0.000404
0.000433
0.000367
0.000459
0.000564
0.000624
0.000661
0.000640
0.000643
0.000569
0.000596
0.000593
0.000480
0.000428
0.000396
0.000352
0.000312
0.000362
0.000391
0.000420
0.000451
0.000496
0.000420
0.000383
0.000451
0.000533
0.000596
0.000504
0.000485
0.000556
0.000488
0.000375
0.000338
0.000349
0.000283
0.000254
0.000344
0.000470
0.000540
0.000601
0.000572
0.000590
0.000585
0.000546
0.000538
0.000443
0.000254
0.000163
0.000202
0.000241
0.000367
0.000546
0.000630
0.000572
0.000533
0.000464
0.000454
0.000443
0.000425
0.000456
0.000519
0.000577
0.000679
0.000588
0.000443
0.000336
0.000404
0.000480
0.000624
0.000619
0.000535
0.000572
0.000627
0.000622
0.000540
0.000517
0.000504
0.000538
0.000575
0.000635
0.000590
0.000519
0.000551
0.000598
0.000624
0.000572
0.000483
0.000417
0.000380
0.000451
0.000501
0.000470
0.000546
0.000564
0.000596
0.000593
0.000546
0.000501
0.000446
0.000501
0.000648
0.000732
0.000774
0.000753
0.000637
0.000561
0.000514
0.000417
0.000333
0.000302
0.000346
0.000378
0.000362
0.000310
0.000378
0.000475
0.000540
0.000601
0.000643
0.000601
0.000527
0.000540
0.000561
0.000585
0.000609
0.000564
0.000606
0.000658
0.000619
0.000540
0.000543
0.000543
0.000525
0.000533
0.000567
0.000580
0.000559
0.000504
0.000483
0.000483
0.000506
0.000577
0.000645
0.000619
0.000567
0.000519
0.000506
0.000554
0.000559
0.000504
0.000509
0.000577
0.000603
0.000585
0.000546
0.000593
0.000535
0.000456
0.000498
0.000540
0.000530
0.000472
0.000470
0.000598
0.000666
0.000711
0.000619
0.000498
0.000407
0.000341
0.000323
0.000386
0.000357
0.000386
0.000472
0.000506
0.000498
0.000559
0.000601
0.000666
0.000706
0.000669
0.000617
0.000514
0.000456
0.000509
0.000414
0.000412
0.000493
0.000546
0.000540
0.000519
0.000506
0.000435
0.000391
0.000462
0.000517
0.000596
0.000640
0.000590
0.000580
0.000535
0.000561
0.000601
0.000567
0.000483
0.000451
0.000454
0.000472
0.000530
0.000601
0.000669
0.000640
0.000700
0.000819
0.000816
0.000721
0.000661
0.000674
0.000690
0.000666
0.000698
0.000748
0.000648
0.000569
0.000559
0.000572
0.000564
0.000648
0.000784
0.000824
0.000716
0.000679
0.000606
0.000533
0.000577
0.000648
0.000695
0.000742
0.000829
0.000892
0.000918
0.000900
0.000882
0.000847
0.000727
0.000698
0.000708
0.000777
0.000850
0.000853
0.000787
0.000666
0.000609
0.000651
0.000674
0.000716
0.000658
0.000617
0.000590
0.000617
0.000640
0.000598
0.000564
0.000546
0.000483
0.000446
0.000451
0.000538
0.000569
0.000559
0.000643
0.000727
0.000719
0.000711
0.000782
0.000769
0.000716
0.000685
0.000677
0.000637
0.000601
0.000585
0.000614
0.000527
0.000443
0.000401
0.000449
0.000527
0.000609
0.000724
0.000803
0.000819
0.000842
0.000824
0.000790
0.000787
0.000774
0.000724
0.000645
0.000609
0.000648
0.000627
0.000658
0.000732
0.000682
0.000714
0.000742
0.000711
0.000614
0.000559
0.000580
0.000577
0.000540
0.000609
0.000672
0.000753
0.000703
0.000687
0.000742
0.000863
0.000884
0.000840
0.000784
0.000714
0.000637
0.000674
0.000782
0.000777
0.000658
0.000653
0.000653
0.000653
0.000606
0.000561
0.000598
0.000706
0.000766
0.000832
0.000855
0.000811
0.000771
0.000737
0.000708
0.000617
0.000527
0.000572
0.000674
0.000703
0.000784
0.000847
0.000874
0.000858
0.000826
0.000850
0.000845
0.000845
0.000837
0.000782
0.000782
0.000853
0.000887
0.000837
0.000750
0.000724
0.000716
0.000721
0.000716
0.000803
0.000863
0.000832
0.000805
0.000803
0.000729
0.000729
0.000742
0.000763
0.000732
0.000674
0.000674
0.000693
0.000617
0.000522
0.000546
0.000609
0.000648
0.000700
0.000795
0.000790
0.000750
0.000721
0.000727
0.000732
0.000756
0.000824
0.000879
0.000895
0.000876
0.000868
0.000868
0.000826
0.000800
0.000813
0.000735
0.000640
0.000559
0.000533
0.000590
0.000685
0.000761
0.000861
0.000882
0.000861
0.000855
0.000837
0.000821
0.000819
0.000782
0.000742
0.000724
0.000719
0.000672
0.000582
0.000572
0.000590
0.000645
0.000645
0.000708
0.000750
0.000737
0.000564
0.000480
0.000645
0.000698
0.000679
0.000672
0.000706
0.000674
0.000627
0.000700
0.000808
0.000842
0.000858
0.000861
0.000921
0.000868
0.000735
0.000695
0.000682
0.000756
0.000850
0.000929
0.000934
0.000853
0.000866
0.000910
0.000908
0.000834
0.000719
0.000698
0.000677
0.000685
0.000745
0.000774
0.000727
0.000645
0.000637
0.000695
0.000774
0.000808
0.000798
0.000721
0.000651
0.000632
0.000672
0.000771
0.000784
0.000703
0.000658
0.000716
0.000816
0.000834
0.000837
0.000795
0.000748
0.000829
0.000876
0.000853
0.000777
0.000687
0.000635
0.000664
0.000779
0.000850
0.000892
0.000900
0.000897
0.000973
0.001000
0.000955
0.000866
0.000763
0.000632
0.000601
0.000661
0.000656
0.000661
0.000656
0.000640
0.000679
0.000687
0.000732
0.000777
0.000795
0.000829
0.000895
0.000845
0.000829
0.000771
0.000745
0.000703
0.000706
0.000706
0.000698
0.000700
0.000658
0.000682
0.000682
0.000779
0.000845
0.000889
0.000902
0.000923
0.000947
0.000926
0.000876
0.000837
0.000816
0.000882
0.000889
0.000910
0.000944
0.000947
0.000950
0.001007
0.000997
0.000908
0.000882
0.000884
0.000819
0.000732
0.000732
0.000706
0.000756
0.000795
0.000777
0.000782
0.000771
0.000782
0.000729
0.000687
0.000632
0.000611
0.000679
0.000687
0.000666
0.000685
0.000777
0.000826
0.000840
0.000824
0.000845
0.000853
0.000805
0.000821
0.000787
0.000779
0.000756
0.000753
0.000798
0.000758
0.000750
0.000816
0.000845
0.000805
0.000847
0.000918
0.000963
0.000902
0.000876
0.000769
0.000666
0.000648
0.000698
0.000745
0.000700
0.000698
0.000687
0.000735
0.000742
0.000748
0.000800
0.000787
0.000845
0.000926
0.001018
0.001028
0.001000
0.000965
0.000968
0.000984
0.000958
0.000965
0.000916
0.000871
0.000771
0.000703
0.000703
0.000740
0.000792
0.000792
0.000782
0.000771
0.000808
0.000763
0.000708
0.000727
0.000784
0.000784
0.000847
0.001000
0.001031
0.001015
0.000997
0.000952
0.000942
0.000921
0.000902
0.000779
0.000745
0.000769
0.000819
0.000795
0.000821
0.000866
0.000779
0.000756
0.000845
0.000845
0.000729
0.000682
0.000763
0.000808
0.000811
0.000845
0.000861
0.000753
0.000674
0.000777
0.000819
0.000834
0.000871
0.000868
0.000926
0.000944
0.000947
0.000908
0.000892
0.000840
0.000816
0.000866
0.000900
0.000934
0.000939
0.000929
0.000910
0.000882
0.000874
0.000824
0.000937
0.000965
0.000992
0.001007
0.000981
0.000958
0.000916
0.000882
0.000913
0.000960
0.000950
0.000929
0.000882
0.000816
0.000774
0.000777
0.000819
0.000758
0.000771
0.000826
0.000861
0.000876
0.000829
0.000798
0.000819
0.000840
0.000871
0.000850
0.000798
0.000779
0.000742
0.000664
0.000617
0.000732
0.000868
0.000986
0.001034
0.001036
0.000968
0.000916
0.000916
0.000892
0.000845
0.000834
0.000944
0.000944
0.000918
0.000892
0.000902
0.000892
0.000947
0.000973
0.001018
0.000934
0.000934
0.000897
0.000889
0.000921
0.001007
0.001015
0.000981
0.000971
0.000921
0.000819
0.000698
0.000698
0.000745
0.000826
0.000861
0.000897
0.000939
0.000937
0.001028
0.001063
0.000997
0.000889
0.000800
0.000811
0.000829
0.000834
0.000819
0.000787
0.000771
0.000800
0.000816
0.000850
0.000816
0.000771
0.000714
0.000795
0.000853
0.000866
0.000842
0.000850
0.000821
0.000777
0.000855
0.000895
0.000840
0.000769
0.000821
0.000921
0.000908
0.000884
0.000981
0.001049
0.001010
0.000916
0.000826
0.000763
0.000816
0.000803
0.000798
0.000808
0.000714
0.000735
0.000816
0.000866
0.000790
0.000711
0.000727
0.000769
0.000850
0.000902
0.000902
0.000902
0.000879
0.000874
0.000842
0.000824
0.000868
0.000868
0.000834
0.000879
0.000882
0.000861
0.000868
0.000908
0.000989
0.001015
0.000979
0.000986
0.000895
0.000853
0.000842
0.000803
0.000753
0.000698
0.000771
0.000842
0.000837
0.000798
0.000832
0.000902
0.000905
0.000876
0.000958
0.001018
0.000934
0.000861
0.000829
0.000832
0.000808
0.000813
0.000861
0.000876
0.000910
0.000918
0.000916
0.000902
0.000913
0.000908
0.000882
0.000871
0.000879
0.000879
0.000905
0.000884
0.000824
0.000805
0.000923
0.001013
0.001007
0.000931
0.000840
0.000832
0.000876
0.000837
0.000845
0.000787
0.000819
0.000897
0.001068
0.001107
0.001055
0.001007
0.000960
0.000910
0.000824
0.000790
0.000748
0.000758
0.000769
0.000758
0.000805
0.000895
0.000908
0.000910
0.000900
0.000892
0.000916
0.000884
0.000939
0.000955
0.000861
0.000819
0.000892
0.000979
0.000952
0.000994
0.001021
0.000960
0.000923
0.000952
0.000958
0.000887
0.000892
0.000965
0.001031
0.001031
0.000939
0.000876
0.000798
0.000777
0.000824
0.000887
0.000921
0.000871
0.000845
0.000845
0.000895
0.000918
0.000884
0.000879
0.000897
0.000908
0.000937
0.000971
0.000918
0.000845
0.000845
0.000837
0.000842
0.000900
0.000947
0.000942
0.000868
0.000897
0.000921
0.000892
0.000876
0.000832
0.000887
0.000929
0.001036
0.001107
0.001094
0.001081
0.001070
0.001042
0.001010
0.001007
0.001007
0.001018
0.001013
0.000968
0.000994
0.001015
0.001010
0.000908
0.000829
0.000803
0.000758
0.000756
0.000750
0.000771
0.000766
0.000861
0.000929
0.000934
0.000934
0.000944
0.000981
0.000910
0.000800
0.000842
0.000910
0.000908
0.000934
0.001026
0.001031
0.000997
0.000944
0.000952
0.000939
0.000926
0.000939
0.000976
0.001018
0.000960
0.000950
0.001013
0.001049
0.000989
0.000968
0.001007
0.000976
0.000910
0.000929
0.000916
0.000879
0.000871
0.000879
0.000902
0.000923
0.000921
0.000929
0.000902
0.000921
0.000939
0.000952
0.001010
0.000944
0.000958
0.001028
0.001028
0.000971
0.000942
0.000968
0.000968
0.000984
0.000994
0.001005
0.000963
0.000908
0.000958
0.000997
0.000963
0.000897
0.000879
0.000876
0.000926
0.000866
0.000813
0.000808
0.000871
0.000929
0.000989
0.001002
0.001005
0.000984
0.001002
0.001015
0.000918
0.000897
0.000868
0.000853
0.000808
0.000871
0.000929
0.000947
0.000947
0.000955
0.000895
0.000908
0.000963
0.001018
0.001021
0.000968
0.000976
0.000923
0.000837
0.000748
0.000729
0.000750
0.000774
0.000858
0.000950
0.000979
0.000916
0.000921
0.000976
0.000989
0.001013
0.001052
0.001015
0.001010
0.001010
0.001034
0.000981
0.000910
0.000968
0.001002
0.001000
0.001052
0.001031
0.000984
0.000981
0.000992
0.000992
0.000929
0.000921
0.000986
0.001057
0.001078
0.001068
0.001065
0.000994
0.000960
0.001097
0.001170
0.001157
0.001170
0.001162
0.001154
0.001065
0.000921
0.000918
0.000997
0.000994
0.001031
0.001070
0.001126
0.001010
0.000937
0.000958
0.000997
0.001000
0.001028
0.001102
0.001084
0.001063
0.001042
0.001010
0.001002
0.001005
0.001026
0.000952
0.000950
0.000976
0.000963
0.000908
0.000879
0.000847
0.000829
0.000879
0.000997
0.001052
0.001126
0.001144
0.001091
0.001063
0.001007
0.001021
0.001065
0.001089
0.001094
0.001076
0.001089
0.001128
0.001086
0.001052
0.001023
0.001013
0.001034
0.001026
0.000992
0.000997
0.000965
0.000934
0.000944
0.000960
0.000984
0.000979
0.001013
0.001005
0.000952
0.000908
0.000971
0.001044
0.001081
0.001133
0.001073
0.000973
0.000929
0.000913
0.000905
0.000855
0.000863
0.000882
0.000934
0.000994
0.000971
0.000947
0.000979
0.001028
0.001060
0.001052
0.001057
0.001052
0.001055
0.001034
0.001000
0.001015
0.001010
0.001015
0.001015
0.001049
0.001057
0.000994
0.000950
0.000984
0.000994
0.001010
0.001031
0.001065
0.000997
0.000960
0.001015
0.000979
0.000892
0.000923
0.001013
0.001042
0.001057
0.001049
0.001026
0.000955
0.000984
0.001060
0.000997
0.000989
0.001078
0.001128
0.001110
0.001055
0.000963
0.000939
0.001036
0.001076
0.001097
0.001028
0.000981
0.000944
0.000997
0.001002
0.000992
0.000942
0.000984
0.000986
0.000994
0.001026
0.001034
0.000968
0.000926
0.000952
0.000984
0.000994
0.001010
0.001007
0.000952
0.000942
0.000926
0.000958
0.000829
0.000819
0.000905
0.000902
0.000882
0.000871
0.000874
0.000866
0.000868
0.000821
0.000763
0.000824
0.000950
0.001036
0.001065
0.001099
0.001042
0.000960
0.000910
0.000923
0.000944
0.000963
0.000942
0.000913
0.000892
0.000892
0.000892
0.000910
0.000892
0.000913
0.000926
0.000952
0.000929
0.000905
0.000905
0.000876
0.000902
0.001015
0.001091
0.001160
0.001144
0.001094
0.001057
0.001036
0.001076
0.001081
0.001023
0.000992
0.000934
0.000986
0.001034
0.000992
0.001057
0.001078
0.001097
0.001057
0.001126
0.001154
0.001107
0.001076
0.001120
0.001215
0.001181
0.001112
0.001052
0.001031
0.000965
0.001015
0.001031
0.001055
0.001005
0.000965
0.001007
0.001023
0.001044
0.001078
0.001120
0.001123
0.001086
0.001086
0.001081
0.001049
0.001042
0.001039
0.001052
0.001070
0.001073
0.001126
0.001063
0.001018
0.001057
0.001000
0.000910
0.000889
0.000934
0.000934
0.000905
0.000900
0.000874
0.000840
0.000868
0.000939
0.000981
0.001002
0.001049
0.001073
0.001089
0.001018
0.000952
0.000947
0.000973
0.000968
0.000934
0.000963
0.000986
0.000960
0.000910
0.000913
0.000976
0.000997
0.001073
0.001099
0.001068
0.000997
0.000950
0.000929
0.000950
0.000947
0.000950
0.000947
0.000929
0.000952
0.000944
0.000989
0.001034
0.001063
0.001157
0.001168
0.001178
0.001173
0.001091
0.000965
0.000931
0.000971
0.001013
0.001028
0.001052
0.001060
0.001028
0.000958
0.000968
0.001010
0.001023
0.001099
0.001102
0.001128
0.001076
0.001005
0.000986
0.000979
0.000992
0.000939
0.000947
0.000973
0.001036
0.001068
0.001049
0.000981
0.000868
0.000811
0.000855
0.000955
0.001018
0.001021
0.001070
0.001110
0.001099
0.001073
0.001015
0.000976
0.000950
0.001000
0.001060
0.001060
0.001007
0.001000
0.001013
0.001044
0.001120
0.001115
0.001076
0.001060
0.001042
0.001057
0.001081
0.001110
0.001089
0.000997
0.000971
0.001007
0.001060
0.001073
0.001042
0.001049
0.001094
0.001068
0.001063
0.001044
0.001036
0.001028
0.001013
0.000958
0.000868
0.000837
0.000947
0.001036
0.001042
0.001026
0.001052
0.001084
0.001073
0.001028
0.001070
0.001139
0.001136
0.001152
0.001154
0.001099
0.001089
0.001028
0.001049
0.001047
0.001036
0.000994
0.000950
0.001047
0.001068
0.000986
0.000963
0.000986
0.000989
0.001034
0.001091
0.001160
0.001107
0.001052
0.001039
0.001039
0.001028
0.001021
0.001034
0.001076
0.001110
0.001147
0.001154
0.001110
0.001052
0.001049
0.001060
0.001005
0.000931
0.000866
0.000826
0.000782
0.000834
0.000887
0.000897
0.001007
0.001078
0.001042
0.001010
0.001005
0.001005
0.000984
0.000979
0.000994
0.001031
0.001023
0.001010
0.001063
0.001094
0.001076
0.001065
0.001089
0.001131
0.001152
0.001107
0.001063
0.000968
0.000897
0.000971
0.001063
0.001042
0.001023
0.001102
0.001123
0.001018
0.000984
0.000976
0.000984
0.000965
0.000984
0.000934
0.000876
0.000798
0.000819
0.000913
0.000952
0.000989
0.001000
0.001023
0.001055
0.001036
0.001013
0.001039
0.001070
0.001076
0.001063
0.001055
0.001036
0.001015
0.001068
0.001112
0.001107
0.001097
0.001102
0.001097
0.001081
0.001065
0.000992
0.000950
0.000942
0.000908
0.000905
0.000910
0.000979
0.001002
0.000984
0.001094
0.001136
0.001105
0.001097
0.001149
0.001152
0.001081
0.001063
0.001047
0.000976
0.000958
0.001073
0.001209
0.001157
0.001110
0.001068
0.001115
0.001091
0.001036
0.000992
0.000950
0.000921
0.000887
0.000866
0.000958
0.000989
0.001013
0.001118
0.001204
0.001230
0.001144
0.001123
0.001149
0.001147
0.001107
0.001070
0.001089
0.001152
0.001105
0.000997
0.000952
0.000929
0.000910
0.000944
0.000992
0.000971
0.000934
0.000960
0.001007
0.001000
0.000976
0.001010
0.001034
0.001023
0.001039
0.000989
0.001036
0.001091
0.001110
0.001149
0.001160
0.001131
0.001063
0.000997
0.001031
0.001031
0.001021
0.001068
0.001126
0.001123
0.001141
0.001131
0.001091
0.001170
0.001168
0.001052
0.001028
0.001044
0.001028
0.001010
0.001013
0.000992
0.000971
0.000994
0.001086
0.001157
0.001152
0.001170
0.001099
0.001076
0.001091
0.001115
0.001183
0.001170
0.001107
0.001031
0.000981
0.000947
0.000918
0.000942
0.001036
0.001105
0.001102
0.001133
0.001194
0.001141
0.001141
0.001126
0.001110
0.001126
0.001078
0.001063
0.001136
0.001081
0.001000
0.001028
0.001112
0.001152
0.001131
0.001149
0.001149
0.001094
0.001078
0.001188
0.001217
0.001128
0.001147
0.001194
0.001107
0.001123
0.001076
0.001065
0.001091
0.001131
0.001178
0.001139
0.001094
0.001070
0.001076
0.001034
0.001007
0.000976
0.000994
0.001105
0.001133
0.001133
0.001128
0.001039
0.001049
0.001068
0.001105
0.001105
0.001126
0.001128
0.001183
0.001186
0.001175
0.001175
0.001141
0.001139
0.001162
0.001136
0.001084
0.001105
0.001178
0.001136
0.001099
0.001065
0.001118
0.001136
0.001131
0.001162
0.001149
0.001115
0.001115
0.001149
0.001147
0.001136
0.001183
0.001194
0.001183
0.001099
0.001065
0.001042
0.001039
0.001070
0.001063
0.001068
0.001126
0.001170
0.001212
0.001246
0.001217
0.001196
0.001160
0.001107
0.001078
0.001107
0.001128
0.001136
0.001157
0.001194
0.001178
0.001094
0.001060
0.001102
0.001102
0.001139
0.001178
0.001207
0.001209
0.001175
0.001178
0.001144
0.001102
0.000997
0.000965
0.001007
0.001070
0.001123
0.001168
0.001162
0.001162
0.001136
0.001157
0.001131
0.001068
0.001089
0.001173
0.001228
0.001186
0.001173
0.001147
0.001186
0.001207
0.001238
0.001283
0.001272
0.001228
0.001220
0.001183
0.001136
0.001107
0.001128
0.001115
0.001107
0.001105
0.001165
0.001220
0.001215
0.001244
0.001246
0.001199
0.001162
0.001131
0.001057
0.000989
0.001007
0.001015
0.000981
0.001005
0.001084
0.001110
0.001065
0.001084
0.001149
0.001162
0.001168
0.001207
0.001178
0.001115
0.001094
0.001141
0.001107
0.001049
0.001055
0.001068
0.001060
0.001120
0.001144
0.001168
0.001191
0.001209
0.001204
0.001141
0.001165
0.001139
0.001055
0.001000
0.000916
0.000900
0.000889
0.000871
0.000803
0.000819
0.000937
0.001021
0.001063
0.001091
0.001102
0.001107
0.001175
0.001207
0.001168
0.001181
0.001230
0.001209
0.001251
0.001257
0.001230
0.001144
0.001105
0.001081
0.001026
0.001005
0.001102
0.001139
0.001147
0.001183
0.001165
0.001126
0.001049
0.000942
0.000931
0.001002
0.001052
0.001063
0.001060
0.001036
0.001042
0.000986
0.000981
0.000992
0.001015
0.001028
0.001073
0.001073
0.001089
0.001089
0.001110
0.001133
0.001139
0.001131
0.001162
0.001188
0.001144
0.001139
0.001123
0.001126
0.001086
0.001152
0.001154
0.001097
0.001078
0.001128
0.001170
0.001181
0.001162
0.001131
0.001110
0.001047
0.000997
0.001060
0.001126
0.001089
0.001115
0.001175
0.001152
0.001183
0.001196
0.001178
0.001183
0.001170
0.001183
0.001183
0.001141
0.001154
0.001178
0.001157
0.001147
0.001152
0.001149
0.001149
0.001175
0.001238
0.001194
0.001149
0.001178
0.001233
0.001223
0.001228
0.001220
0.001202
0.001160
0.001131
0.001170
0.001209
0.001249
0.001265
0.001265
0.001202
0.001136
0.001052
0.001000
0.001018
0.001110
0.001168
0.001199
0.001225
0.001238
0.001183
0.001126
0.001078
0.001060
0.001039
0.001042
0.001133
0.001154
0.001170
0.001157
0.001115
0.001128
0.001175
0.001136
0.001133
0.001105
0.001065
0.001078
0.001073
0.001057
0.000989
0.000976
0.001044
0.001126
0.001141
0.001070
0.001049
0.000971
0.001005
0.001081
0.001170
0.001194
0.001230
0.001236
0.001254
0.001202
0.001173
0.001152
0.001099
0.001126
0.001112
0.001065
0.001107
0.001091
0.001039
0.001055
0.001073
0.001097
0.001144
0.001118
0.001110
0.001152
0.001181
0.001207
0.001209
0.001152
0.001128
0.001149
0.001144
0.001149
0.001168
0.001204
0.001181
0.001215
0.001215
0.001178
0.001120
0.001076
0.001118
0.001102
0.001181
0.001188
0.001204
0.001154
0.001131
0.001165
0.001170
0.001162
0.001178
0.001149
0.001115
0.001131
0.001128
0.001118
0.001073
0.001052
0.001052
0.001070
0.001044
0.001086
0.001149
0.001149
0.001160
0.001139
0.001168
0.001194
0.001204
0.001199
0.001160
0.001110
0.001136
0.001207
0.001220
0.001152
0.001157
0.001165
0.001131
0.001073
0.001052
0.001102
0.001160
0.001223
0.001178
0.001141
0.001147
0.001107
0.001081
0.001076
0.001126
0.001110
0.001115
0.001183
0.001230
0.001228
0.001209
0.001230
0.001196
0.001199
0.001204
0.001230
0.001204
0.001186
0.001170
0.001160
0.001168
0.001170
0.001141
0.001123
0.001149
0.001147
0.001183
0.001220
0.001238
0.001183
0.001139
0.001188
0.001209
0.001144
0.001154
0.001238
0.001225
0.001204
0.001209
0.001168
0.001110
0.001023
0.000952
0.000947
0.000989
0.001002
0.001107
0.001225
0.001244
0.001186
0.001141
0.001123
0.001191
0.001238
0.001251
0.001246
0.001228
0.001202
0.001152
0.001131
0.001165
0.001126
0.001149
0.001191
0.001202
0.001094
0.001015
0.000968
0.000989
0.001049
0.001107
0.001154
0.001178
0.001144
0.001120
0.001144
0.001183
0.001228
0.001178
0.001165
0.001154
0.001168
0.001157
0.001128
0.001110
0.001118
0.001149
0.001178
0.001215
0.001188
0.001170
0.001220
0.001212
0.001223
0.001257
0.001199
0.001204
0.001188
0.001191
0.001123
0.001099
0.001091
0.001084
0.001110
0.001157
0.001238
0.001251
0.001257
0.001244
0.001162
0.001094
0.001120
0.001133
0.001183
0.001183
0.001178
0.001133
0.001120
0.001115
0.001115
0.001052
0.001018
0.001091
0.001136
0.001175
0.001204
0.001157
0.001086
0.001073
0.001091
0.001068
0.001097
0.001120
0.001133
0.001165
0.001162
0.001175
0.001131
0.001118
0.001191
0.001236
0.001288
0.001288
0.001275
0.001246
0.001225
0.001202
0.001194
0.001233
0.001212
0.001162
0.001149
0.001099
0.001084
0.001133
0.001170
0.001202
0.001202
0.001207
0.001244
0.001254
0.001267
0.001346
0.001343
0.001317
0.001307
0.001246
0.001183
0.001147
0.001183
0.001191
0.001178
0.001204
0.001188
0.001228
0.001230
0.001230
0.001212
0.001183
0.001199
0.001209
0.001191
0.001133
0.001123
0.001133
0.001128
0.001175
0.001178
0.001188
0.001223
0.001196
0.001178
0.001173
0.001178
0.001178
0.001225
0.001204
0.001199
0.001209
0.001212
0.001188
0.001123
0.001139
0.001149
0.001181
0.001183
0.001267
0.001270
0.001259
0.001246
0.001181
0.001162
0.001178
0.001152
0.001123
0.001139
0.001165
0.001154
0.001181
0.001215
0.001217
0.001204
0.001191
0.001183
0.001154
0.001123
0.001115
0.001110
0.001157
0.001133
0.001170
0.001204
0.001241
0.001275
0.001270
0.001275
0.001225
0.001191
0.001110
0.001123
0.001168
0.001147
0.001123
0.001084
0.001118
0.001112
0.001089
0.001089
0.001139
0.001186
0.001215
0.001191
0.001196
0.001162
0.001139
0.001133
0.001175
0.001170
0.001068
0.001049
0.001112
0.001199
0.001191
0.001209
0.001244
0.001199
0.001178
0.001188
0.001233
0.001241
0.001186
0.001133
0.001115
0.001057
0.000997
0.001047
0.001144
0.001175
0.001139
0.001099
0.001102
0.001120
0.001173
0.001183
0.001162
0.001196
0.001168
0.001223
0.001230
0.001212
0.001233
0.001186
0.001233
0.001254
0.001259
0.001254
0.001254
0.001225
0.001249
0.001244
0.001236
0.001165
0.001147
0.001154
0.001168
0.001131
0.001089
0.001073
0.001057
0.001097
0.001181
0.001186
0.001202
0.001220
0.001230
0.001217
0.001217
0.001212
0.001147
0.001126
0.001181
0.001217
0.001215
0.001220
0.001225
0.001191
0.001186
0.001141
0.001154
0.001144
0.001126
0.001107
0.001128
0.001110
0.001118
0.001123
0.001173
0.001168
0.001152
0.001175
0.001183
0.001209
0.001173
0.001157
0.001154
0.001199
0.001251
0.001212
0.001160
0.001078
0.001076
0.001123
0.001152
0.001199
0.001241
0.001209
0.001202
0.001191
0.001160
0.001147
0.001078
0.001049
0.001091
0.001144
0.001215
0.001212
0.001228
0.001259
0.001257
0.001249
0.001233
0.001223
0.001202
0.001215
0.001220
0.001230
0.001175
0.001120
0.001105
0.001120
0.001162
0.001136
0.001123
0.001115
0.001105
0.001112
0.001131
0.001160
0.001186
0.001186
0.001202
0.001228
0.001246
0.001267
0.001259
0.001280
0.001307
0.001325
0.001275
0.001275
0.001220
0.001173
0.001202
0.001220
0.001212
0.001209
0.001220
0.001225
0.001251
0.001238
0.001286
0.001293
0.001262
0.001296
0.001291
0.001278
0.001270
0.001233
0.001246
0.001249
0.001223
0.001178
0.001165
0.001175
0.001194
0.001223
0.001233
0.001217
0.001175
0.001126
0.001110
0.001168
0.001173
0.001170
0.001175
0.001191
0.001217
0.001233
0.001236
0.001230
0.001259
0.001223
0.001204
0.001186
0.001149
0.001141
0.001141
0.001147
0.001141
0.001249
0.001236
0.001196
0.001165
0.001089
0.001007
0.001044
0.001081
0.001126
0.001147
0.001202
0.001207
0.001209
0.001244
0.001236
0.001230
0.001225
0.001212
0.001217
0.001183
0.001139
0.001120
0.001144
0.001186
0.001191
0.001246
0.001241
0.001183
0.001170
0.001157
0.001202
0.001196
0.001191
0.001141
0.001115
0.001123
0.001178
0.001207
0.001259
0.001225
0.001228
0.001278
0.001265
0.001225
0.001065
0.000855
0.000847
0.000984
0.001076
0.001112
0.001157
0.001178
0.001173
0.001194
0.001220
0.001178
0.001168
0.001162
0.001259
0.001265
0.001215
0.001170
0.001152
0.001112
0.001089
0.001165
0.001220
0.001241
0.001170
0.001202
0.001225
0.001225
0.001212
0.001175
0.001162
0.001173
0.001183
0.001173
0.001175
0.001199
0.001188
0.001194
0.001168
0.001141
0.001157
0.001178
0.001175
0.001209
0.001272
0.001309
0.001267
0.001246
0.001225
0.001175
0.001181
0.001220
0.001246
0.001199
0.001194
0.001168
0.001183
0.001199
0.001257
0.001259
0.001212
0.001154
0.001183
0.001170
0.001183
0.001133
0.001136
0.001173
0.001204
0.001233
0.001291
0.001283
0.001238
0.001175
0.001236
0.001280
0.001251
0.001278
0.001236
0.001209
0.001217
0.001209
0.001202
0.001236
0.001223
0.001194
0.001133
0.001094
0.001078
0.001105
0.001165
0.001236
0.001244
0.001244
0.001244
0.001230
0.001244
0.001223
0.001207
0.001228
0.001291
0.001291
0.001280
0.001230
0.001175
0.001165
0.001199
0.001223
0.001230
0.001202
0.001186
0.001223
0.001233
0.001181
0.001126
0.001068
0.001052
0.001089
0.001115
0.001154
0.001157
0.001149
0.001157
0.001230
0.001212
0.001196
0.001217
0.001191
0.001209
0.001225
0.001283
0.001299
0.001238
0.001312
0.001283
0.001215
0.001165
0.001131
0.001165
0.001126
0.001173
0.001225
0.001212
0.001212
0.001217
0.001215
0.001199
0.001147
0.001141
0.001165
0.001165
0.001199
0.001241
0.001220
0.001186
0.001209
0.001241
0.001246
0.001209
0.001188
0.001246
0.001228
0.001233
0.001230
0.001207
0.001173
0.001152
0.001162
0.001230
0.001272
0.001288
0.001307
0.001280
0.001202
0.001126
0.001139
0.001168
0.001196
0.001154
0.001168
0.001112
0.001091
0.001120
0.001133
0.001144
0.001147
0.001154
0.001220
0.001259
0.001236
0.001209
0.001202
0.001196
0.001262
0.001228
0.001188
0.001183
0.001152
0.001191
0.001223
0.001262
0.001296
0.001283
0.001283
0.001299
0.001293
0.001272
0.001241
0.001230
0.001241
0.001293
0.001301
0.001301
0.001291
0.001265
0.001275
0.001288
0.001299
0.001304
0.001278
0.001236
0.001228
0.001228
0.001225
0.001152
0.001147
0.001244
0.001262
0.001265
0.001270
0.001286
0.001249
0.001230
0.001246
0.001246
0.001209
0.001181
0.001196
0.001178
0.001157
0.001160
0.001220
0.001272
0.001251
0.001228
0.001267
0.001262
0.001246
0.001267
0.001270
0.001249
0.001225
0.001196
0.001136
0.001086
0.001084
0.001112
0.001139
0.001162
0.001212
0.001244
0.001283
0.001317
0.001262
0.001220
0.001209
0.001225
0.001199
0.001152
0.001131
0.001112
0.001107
0.001136
0.001149
0.001170
0.001168
0.001157
0.001178
0.001220
0.001199
0.001199
0.001199
0.001154
0.001123
0.001170
0.001204
0.001181
0.001160
0.001126
0.001118
0.001128
0.001110
0.001170
0.001204
0.001209
0.001207
0.001244
0.001257
0.001225
0.001181
0.001181
0.001157
0.001139
0.001154
0.001183
0.001228
0.001199
0.001209
0.001212
0.001183
0.001220
0.001249
0.001241
0.001241
0.001178
0.001160
0.001157
0.001194
0.001225
0.001238
0.001275
0.001296
0.001293
0.001320
0.001286
0.001275
0.001228
0.001191
0.001202
0.001188
0.001160
0.001202
0.001196
0.001209
0.001223
0.001238
0.001301
0.001283
0.001270
0.001309
0.001275
0.001286
0.001272
0.001217
0.001162
0.001118
0.001126
0.001141
0.001139
0.001128
0.001115
0.001152
0.001209
0.001267
0.001241
0.001238
0.001270
0.001283
0.001270
0.001230
0.001178
0.001126
0.001152
0.001170
0.001257
0.001304
0.001249
0.001223
0.001223
0.001236
0.001207
0.001230
0.001267
0.001291
0.001288
0.001254
0.001283
0.001291
0.001291
0.001280
0.001267
0.001262
0.001238
0.001246
0.001230
0.001202
0.001191
0.001202
0.001199
0.001188
0.001199
0.001147
0.001139
0.001147
0.001188
0.001230
0.001238
0.001244
0.001238
0.001278
0.001233
0.001188
0.001207
0.001215
0.001278
0.001244
0.001246
0.001223
0.001188
0.001183
0.001170
0.001207
0.001204
0.001291
0.001301
0.001299
0.001291
0.001244
0.001228
0.001191
0.001165
0.001188
0.001204
0.001265
0.001275
0.001265
0.001215
0.001204
0.001202
0.001173
0.001202
0.001215
0.001230
0.001223
0.001228
0.001217
0.001196
0.001188
0.001228
0.001270
0.001270
0.001251
0.001288
0.001341
0.001320
0.001293
0.001301
0.001304
0.001267
0.001265
0.001251
0.001246
0.001249
0.001296
0.001307
0.001307
0.001320
0.001244
0.001230
0.001265
0.001244
0.001275
0.001275
0.001246
0.001236
0.001207
0.001181
0.001186
0.001191
0.001149
0.001141
0.001212
0.001228
0.001196
0.001186
0.001173
0.001212
0.001236
0.001257
0.001280
0.001259
0.001272
0.001286
0.001272
0.001228
0.001160
0.001128
0.001188
0.001220
0.001267
0.001286
0.001288
0.001299
0.001207
0.001173
0.001246
0.001246
0.001251
0.001280
0.001296
0.001330
0.001335
0.001346
0.001328
0.001317
0.001291
0.001283
0.001296
0.001251
0.001262
0.001275
0.001317
0.001317
0.001283
0.001291
0.001328
0.001333
0.001346
0.001356
0.001335
0.001296
0.001307
0.001275
0.001249
0.001217
0.001170
0.001196
0.001186
0.001236
0.001270
0.001312
0.001251
0.001228
0.001191
0.001162
0.001173
0.001199
0.001225
0.001251
0.001259
0.001280
0.001251
0.001217
0.001196
0.001186
0.001249
0.001262
0.001278
0.001265
0.001209
0.001173
0.001152
0.001165
0.001178
0.001165
0.001162
0.001241
0.001249
0.001238
0.001293
0.001322
0.001249
0.001215
0.001241
0.001202
0.001115
0.001060
0.001107
0.001139
0.001136
0.001120
0.001168
0.001178
0.001241
0.001212
0.001257
0.001259
0.001293
0.001283
0.001230
0.001254
0.001254
0.001212
0.001246
0.001262
0.001267
0.001259
0.001314
0.001362
0.001354
0.001304
0.001322
0.001293
0.001267
0.001262
0.001225
0.001175
0.001128
0.001099
0.001139
0.001199
0.001230
0.001280
0.001320
0.001309
0.001309
0.001343
0.001354
0.001307
0.001280
0.001225
0.001241
0.001270
0.001291
0.001254
0.001272
0.001280
0.001228
0.001228
0.001233
0.001183
0.001223
0.001223
0.001209
0.001186
0.001157
0.001162
0.001160
0.001149
0.001178
0.001188
0.001188
0.001204
0.001251
0.001278
0.001325
0.001333
0.001283
0.001228
0.001217
0.001280
0.001272
0.001257
0.001288
0.001254
0.001183
0.001178
0.001220
0.001241
0.001212
0.001225
0.001194
0.001178
0.001199
0.001228
0.001230
0.001152
0.001133
0.001186
0.001223
0.001251
0.001275
0.001320
0.001299
0.001244
0.001230
0.001257
0.001223
0.001181
0.001152
0.001173
0.001202
0.001230
0.001301
0.001293
0.001283
0.001335
0.001356
0.001314
0.001301
0.001341
0.001328
0.001288
0.001291
0.001304
0.001286
0.001257
0.001288
0.001267
0.001270
0.001299
0.001275
0.001280
0.001228
0.001173
0.001102
0.001094
0.001149
0.001196
0.001217
0.001283
0.001304
0.001244
0.001246
0.001228
0.001262
0.001230
0.001238
0.001254
0.001233
0.001209
0.001225
0.001254
0.001236
0.001233
0.001288
0.001288
0.001267
0.001215
0.001212
0.001196
0.001170
0.001154
0.001173
0.001196
0.001204
0.001225
0.001267
0.001220
0.001215
0.001199
0.001217
0.001212
0.001204
0.001178
0.001246
0.001262
0.001291
0.001328
0.001328
0.001333
0.001333
0.001312
0.001338
0.001314
0.001267
0.001251
0.001270
0.001307
0.001280
0.001275
0.001254
0.001212
0.001175
0.001170
0.001175
0.001220
0.001262
0.001304
0.001307
0.001349
0.001346
0.001272
0.001244
0.001228
0.001196
0.001215
0.001262
0.001333
0.001296
0.001220
0.001238
0.001217
0.001204
0.001188
0.001178
0.001160
0.001136
0.001094
0.001115
0.001207
0.001272
0.001296
0.001330
0.001325
0.001320
0.001309
0.001275
0.001220
0.001215
0.001238
0.001283
0.001296
0.001317
0.001296
0.001304
0.001275
0.001272
0.001246
0.001259
0.001309
0.001275
0.001249
0.001215
0.001173
0.001136
0.001154
0.001160
0.001165
0.001204
0.001131
0.001152
0.001196
0.001194
0.001199
0.001236
0.001307
0.001354
0.001333
0.001299
0.001238
0.001160
0.001181
0.001254
0.001217
0.001165
0.001209
0.001259
0.001178
0.001131
0.001175
0.001257
0.001244
0.001241
0.001301
0.001307
0.001270
0.001280
0.001320
0.001328
0.001293
0.001278
0.001304
0.001309
0.001259
0.001236
0.001209
0.001262
0.001215
0.001188
0.001181
0.001194
0.001105
0.001063
0.001042
0.001073
0.001105
0.001107
0.001110
0.001123
0.001162
0.001186
0.001194
0.001236
0.001241
0.001254
0.001265
0.001275
0.001265
0.001223
0.001209
0.001307
0.001309
0.001330
0.001346
0.001375
0.001356
0.001307
0.001267
0.001272
0.001265
0.001265
0.001286
0.001291
0.001267
0.001246
0.001220
0.001228
0.001217
0.001168
0.001204
0.001225
0.001236
0.001312
0.001349
0.001364
0.001349
0.001328
0.001320
0.001299
0.001265
0.001249
0.001275
0.001262
0.001259
0.001241
0.001249
0.001283
0.001262
0.001272
0.001322
0.001328
0.001301
0.001270
0.001275
0.001238
0.001254
0.001267
0.001259
0.001267
0.001267
0.001286
0.001280
0.001272
0.001244
0.001196
0.001199
0.001220
0.001230
0.001191
0.001215
0.001262
0.001259
0.001265
0.001265
0.001312
0.001317
0.001299
0.001312
0.001265
0.001233
0.001199
0.001254
0.001293
0.001309
0.001272
0.001283
0.001265
0.001249
0.001275
0.001249
0.001244
0.001212
0.001272
0.001288
0.001283
0.001254
0.001246
0.001212
0.001249
0.001280
0.001275
0.001209
0.001188
0.001233
0.001233
0.001204
0.001241
0.001262
0.001265
0.001251
0.001270
0.001275
0.001244
0.001202
0.001236
0.001257
0.001228
0.001220
0.001238
0.001254
0.001236
0.001244
0.001257
0.001251
0.001296
0.001301
0.001251
0.001267
0.001322
0.001309
0.001291
0.001283
0.001236
0.001259
0.001257
0.001317
0.001320
0.001257
0.001220
0.001223
0.001230
0.001220
0.001207
0.001207
0.001291
0.001265
0.001296
t0(sec) = 0.000000E+0
dt(sec) = 4.000000E-10
F3:INSP "
DESCRIPTOR_NAME    : WAVEDESC           
TEMPLATE_NAME      : LECROY_2_3         
COMM_TYPE          : word               
COMM_ORDER         : HIFIRST            
WAVE_DESCRIPTOR    : 346                
USER_TEXT          : 0                  
RES_DESC1          : 0                  
TRIGTIME_ARRAY     : 0                  
RIS_TIME_ARRAY     : 0                  
RES_ARRAY1         : 0                  
WAVE_ARRAY_1       : 9952               
WAVE_ARRAY_2       : 0                  
RES_ARRAY2         : 0                  
RES_ARRAY3         : 0                  
INSTRUMENT_NAME    : LECROYHDO6104      
INSTRUMENT_NUMBER  : 6308               
TRACE_LABEL        :                    
RESERVED1          : 4976               
RESERVED2          : 0                  
WAVE_ARRAY_COUNT   : 4976               
PNTS_PER_SCREEN    : 5000               
FIRST_VALID_PNT    : 0                  
LAST_VALID_PNT     : 4975               
FIRST_POINT        : 0                  
SPARSING_FACTOR    : 1                  
SEGMENT_INDEX      : 0                  
SUBARRAY_COUNT     : 1                  
SWEEPS_PER_ACQ     : 200                
POINTS_PER_PAIR    : 0                  
PAIR_OFFSET        : 0                  
VERTICAL_GAIN      : 2.4989e-006        
VERTICAL_OFFSET    : 1.6500e-002        
MAX_VALUE          : 3.0578e+004        
MIN_VALUE          : 1.4827e+004        
NOMINAL_BITS       : 16                 
NOM_SUBARRAY_COUNT : 1                  
HORIZ_INTERVAL     : 4.0000e-010        
HORIZ_OFFSET       : -2.00000000e-007   
PIXEL_OFFSET       : -2.10000000e-007   
VERTUNIT           : Unit Name = V
HORUNIT            : Unit Name = S
HORIZ_UNCERTAINTY  : 1.0000e-012        
TRIGGER_TIME       : Date = APR 17, 2024, Time = 19:29:28.611162721
ACQ_DURATION       : 9.9989e+000        
RECORD_TYPE        : single_sweep       
PROCESSING_DONE    : no_processing      
RESERVED5          : 0                  
RIS_SWEEPS         : 1                  
TIMEBASE           : 200_ns/div         
VERT_COUPLING      : DC_50_Ohms         
PROBE_ATT          : 1.0000e+000        
FIXED_VERT_GAIN    : 5_mV/div           
BANDWIDTH_LIMIT    : off                
VERTICAL_VERNIER   : 1.0000e+000        
ACQ_VERT_OFFSET    : 0.0000e+000        
WAVE_SOURCE        : UNKNOWN            
"
0.000577
0.000567
0.000590
0.000562
0.000582
0.000582
0.000570
0.000565
0.000597
0.000580
0.000547
0.000575
0.000562
0.000547
0.000565
0.000570
0.000542
0.000567
0.000567
0.000580
0.000585
0.000540
0.000582
0.000540
0.000585
0.000602
0.000572
0.000567
0.000572
0.000567
0.000565
0.000550
0.000597
0.000527
0.000572
0.000570
0.000552
0.000560
0.000540
0.000567
0.000547
0.000567
0.000597
0.000550
0.000567
0.000587
0.000580
0.000567
0.000590
0.000582
0.000587
0.000592
0.000585
0.000577
0.000565
0.000577
0.000565
0.000572
0.000552
0.000560
0.000552
0.000572
0.000590
0.000547
0.000570
0.000582
0.000577
0.000585
0.000605
0.000590
0.000580
0.000595
0.000587
0.000540
0.000555
0.000570
0.000555
0.000540
0.000567
0.000585
0.000547
0.000565
0.000572
0.000537
0.000545
0.000530
0.000555
0.000547
0.000572
0.000565
0.000565
0.000567
0.000565
0.000552
0.000552
0.000575
0.000587
0.000555
0.000585
0.000605
0.000552
0.000555
0.000590
0.000577
0.000572
0.000572
0.000565
0.000590
0.000560
0.000567
0.000580
0.000575
0.000610
0.000612
0.000577
0.000595
0.000607
0.000567
0.000597
0.000577
0.000572
0.000577
0.000555
0.000555
0.000597
0.000565
0.000562
0.000585
0.000565
0.000572
0.000537
0.000550
0.000567
0.000580
0.000565
0.000597
0.000602
0.000565
0.000607
0.000580
0.000580
0.000575
0.000602
0.000572
0.000582
0.000582
0.000555
0.000562
0.000580
0.000575
0.000575
0.000560
0.000585
0.000585
0.000557
0.000570
0.000587
0.000590
0.000567
0.000580
0.000592
0.000552
0.000595
0.000560
0.000565
0.000580
0.000560
0.000570
0.000552
0.000600
0.000590
0.000567
0.000580
0.000555
0.000555
0.000565
0.000565
0.000590
0.000550
0.000570
0.000577
0.000547
0.000567
0.000547
0.000562
0.000585
0.000582
0.000587
0.000567
0.000572
0.000550
0.000565
0.000580
0.000560
0.000550
0.000560
0.000582
0.000552
0.000520
0.000562
0.000550
0.000537
0.000592
0.000577
0.000560
0.000547
0.000570
0.000552
0.000567
0.000567
0.000582
0.000570
0.000577
0.000620
0.000565
0.000577
0.000585
0.000560
0.000562
0.000585
0.000570
0.000557
0.000597
0.000575
0.000547
0.000567
0.000577
0.000585
0.000565
0.000572
0.000590
0.000542
0.000572
0.000602
0.000577
0.000580
0.000600
0.000597
0.000547
0.000570
0.000557
0.000555
0.000567
0.000570
0.000552
0.000567
0.000575
0.000562
0.000550
0.000587
0.000582
0.000557
0.000590
0.000597
0.000557
0.000567
0.000600
0.000577
0.000577
0.000590
0.000557
0.000575
0.000580
0.000567
0.000572
0.000560
0.000572
0.000557
0.000547
0.000545
0.000582
0.000542
0.000562
0.000567
0.000577
0.000592
0.000587
0.000580
0.000562
0.000597
0.000600
0.000552
0.000597
0.000585
0.000572
0.000557
0.000575
0.000572
0.000557
0.000582
0.000577
0.000545
0.000575
0.000577
0.000562
0.000560
0.000555
0.000572
0.000565
0.000597
0.000567
0.000550
0.000605
0.000595
0.000582
0.000572
0.000582
0.000560
0.000587
0.000590
0.000585
0.000585
0.000585
0.000575
0.000557
0.000575
0.000587
0.000565
0.000552
0.000572
0.000592
0.000542
0.000550
0.000572
0.000577
0.000587
0.000597
0.000575
0.000602
0.000595
0.000575
0.000577
0.000595
0.000570
0.000590
0.000585
0.000550
0.000570
0.000547
0.000532
0.000555
0.000552
0.000572
0.000595
0.000580
0.000592
0.000602
0.000580
0.000610
0.000595
0.000605
0.000587
0.000595
0.000585
0.000587
0.000562
0.000570
0.000557
0.000537
0.000537
0.000557
0.000542
0.000530
0.000530
0.000545
0.000557
0.000570
0.000555
0.000557
0.000562
0.000587
0.000552
0.000570
0.000582
0.000582
0.000567
0.000570
0.000580
0.000555
0.000570
0.000555
0.000530
0.000555
0.000567
0.000557
0.000570
0.000572
0.000555
0.000562
0.000557
0.000572
0.000562
0.000580
0.000615
0.000575
0.000567
0.000592
0.000605
0.000565
0.000567
0.000607
0.000570
0.000587
0.000625
0.000567
0.000570
0.000617
0.000557
0.000577
0.000565
0.000590
0.000595
0.000572
0.000597
0.000572
0.000572
0.000585
0.000597
0.000552
0.000572
0.000595
0.000577
0.000572
0.000612
0.000572
0.000585
0.000595
0.000590
0.000615
0.000627
0.000595
0.000585
0.000562
0.000535
0.000525
0.000510
0.000540
0.000585
0.000570
0.000585
0.000617
0.000577
0.000552
0.000587
0.000562
0.000590
0.000597
0.000570
0.000557
0.000567
0.000515
0.000507
0.000565
0.000592
0.000635
0.000647
0.000650
0.000612
0.000592
0.000542
0.000550
0.000490
0.000547
0.000597
0.000590
0.000612
0.000642
0.000600
0.000605
0.000622
0.000590
0.000570
0.000575
0.000527
0.000520
0.000470
0.000500
0.000535
0.000560
0.000557
0.000602
0.000567
0.000550
0.000560
0.000547
0.000577
0.000655
0.000650
0.000650
0.000657
0.000592
0.000552
0.000525
0.000492
0.000532
0.000512
0.000540
0.000550
0.000552
0.000575
0.000585
0.000600
0.000622
0.000662
0.000667
0.000630
0.000607
0.000530
0.000485
0.000410
0.000445
0.000455
0.000440
0.000470
0.000517
0.000532
0.000570
0.000665
0.000720
0.000765
0.000820
0.000732
0.000720
0.000720
0.000670
0.000640
0.000602
0.000620
0.000625
0.000547
0.000542
0.000572
0.000535
0.000525
0.000550
0.000492
0.000505
0.000500
0.000462
0.000460
0.000507
0.000517
0.000530
0.000637
0.000670
0.000717
0.000732
0.000697
0.000640
0.000520
0.000405
0.000350
0.000275
0.000235
0.000275
0.000312
0.000390
0.000510
0.000605
0.000685
0.000840
0.000920
0.001015
0.001027
0.000972
0.000860
0.000687
0.000462
0.000202
-0.000137
-0.000465
-0.000812
-0.001214
-0.001629
-0.002089
-0.002616
-0.003169
-0.003693
-0.004173
-0.004553
-0.004888
-0.005118
-0.005340
-0.005513
-0.005652
-0.005780
-0.005822
-0.005810
-0.005670
-0.005438
-0.005105
-0.004758
-0.004326
-0.003993
-0.003668
-0.003433
-0.003319
-0.003194
-0.003081
-0.003031
-0.002971
-0.002964
-0.002999
-0.003016
-0.002974
-0.002884
-0.002756
-0.002601
-0.002476
-0.002391
-0.002339
-0.002271
-0.002247
-0.002174
-0.002074
-0.001994
-0.001952
-0.001834
-0.001747
-0.001759
-0.001749
-0.001777
-0.001802
-0.001757
-0.001724
-0.001689
-0.001607
-0.001504
-0.001409
-0.001302
-0.001264
-0.001239
-0.001214
-0.001184
-0.001204
-0.001252
-0.001242
-0.001179
-0.001150
-0.001062
-0.000932
-0.000780
-0.000680
-0.000600
-0.000532
-0.000550
-0.000585
-0.000657
-0.000717
-0.000815
-0.000910
-0.000980
-0.001012
-0.001055
-0.001022
-0.001005
-0.000905
-0.000750
-0.000682
-0.000552
-0.000440
-0.000332
-0.000302
-0.000265
-0.000295
-0.000357
-0.000452
-0.000555
-0.000635
-0.000715
-0.000790
-0.000782
-0.000795
-0.000735
-0.000602
-0.000520
-0.000392
-0.000325
-0.000250
-0.000167
-0.000048
-0.000023
-0.000050
-0.000058
-0.000135
-0.000167
-0.000287
-0.000375
-0.000420
-0.000502
-0.000565
-0.000537
-0.000547
-0.000545
-0.000525
-0.000480
-0.000392
-0.000257
-0.000155
-0.000038
0.000055
0.000080
0.000080
0.000015
-0.000020
-0.000070
-0.000202
-0.000232
-0.000275
-0.000335
-0.000277
-0.000252
-0.000205
-0.000127
-0.000080
-0.000060
-0.000082
-0.000062
-0.000072
-0.000077
-0.000065
-0.000048
-0.000077
-0.000110
-0.000140
-0.000162
-0.000162
-0.000142
-0.000122
-0.000115
-0.000100
-0.000075
-0.000072
-0.000045
-0.000000
0.000045
0.000087
0.000102
0.000137
0.000122
0.000102
0.000095
0.000060
0.000055
0.000032
0.000030
0.000015
0.000055
0.000052
0.000075
0.000035
0.000017
-0.000015
-0.000040
-0.000040
-0.000067
-0.000038
0.000012
0.000085
0.000097
0.000127
0.000185
0.000152
0.000170
0.000205
0.000202
0.000170
0.000170
0.000160
0.000117
0.000097
0.000075
0.000065
0.000022
0.000005
-0.000018
-0.000020
0.000012
0.000050
0.000092
0.000135
0.000240
0.000272
0.000312
0.000355
0.000380
0.000367
0.000310
0.000250
0.000157
0.000085
-0.000005
-0.000060
-0.000122
-0.000127
-0.000107
-0.000095
-0.000020
0.000067
0.000145
0.000215
0.000300
0.000370
0.000412
0.000412
0.000382
0.000327
0.000285
0.000230
0.000132
0.000075
0.000022
-0.000005
-0.000020
-0.000033
0.000025
0.000100
0.000180
0.000267
0.000355
0.000420
0.000477
0.000540
0.000535
0.000500
0.000457
0.000355
0.000270
0.000172
0.000067
-0.000013
-0.000075
-0.000112
-0.000117
-0.000097
-0.000010
0.000095
0.000145
0.000272
0.000342
0.000412
0.000465
0.000482
0.000445
0.000412
0.000350
0.000277
0.000217
0.000180
0.000192
0.000172
0.000175
0.000212
0.000257
0.000237
0.000260
0.000282
0.000277
0.000285
0.000280
0.000252
0.000242
0.000250
0.000237
0.000240
0.000277
0.000297
0.000287
0.000310
0.000340
0.000335
0.000342
0.000357
0.000332
0.000310
0.000267
0.000270
0.000242
0.000232
0.000217
0.000207
0.000207
0.000277
0.000270
0.000335
0.000385
0.000395
0.000407
0.000410
0.000405
0.000387
0.000355
0.000325
0.000277
0.000232
0.000207
0.000200
0.000195
0.000242
0.000292
0.000342
0.000415
0.000445
0.000447
0.000432
0.000390
0.000352
0.000275
0.000257
0.000240
0.000177
0.000165
0.000185
0.000202
0.000225
0.000277
0.000335
0.000360
0.000435
0.000447
0.000487
0.000487
0.000477
0.000475
0.000400
0.000380
0.000340
0.000267
0.000280
0.000252
0.000240
0.000262
0.000340
0.000357
0.000407
0.000492
0.000517
0.000492
0.000467
0.000462
0.000380
0.000322
0.000262
0.000200
0.000152
0.000180
0.000160
0.000162
0.000247
0.000332
0.000377
0.000455
0.000520
0.000547
0.000552
0.000545
0.000495
0.000447
0.000385
0.000347
0.000317
0.000275
0.000297
0.000295
0.000285
0.000337
0.000372
0.000375
0.000417
0.000470
0.000452
0.000450
0.000445
0.000422
0.000402
0.000365
0.000317
0.000265
0.000242
0.000232
0.000242
0.000250
0.000320
0.000395
0.000370
0.000402
0.000412
0.000387
0.000370
0.000372
0.000375
0.000337
0.000370
0.000375
0.000325
0.000347
0.000332
0.000350
0.000365
0.000392
0.000422
0.000420
0.000445
0.000412
0.000395
0.000385
0.000362
0.000290
0.000247
0.000270
0.000255
0.000237
0.000257
0.000300
0.000290
0.000332
0.000395
0.000400
0.000465
0.000502
0.000507
0.000475
0.000472
0.000415
0.000380
0.000345
0.000317
0.000297
0.000295
0.000310
0.000340
0.000350
0.000395
0.000435
0.000475
0.000505
0.000545
0.000500
0.000485
0.000455
0.000410
0.000352
0.000285
0.000267
0.000230
0.000237
0.000250
0.000227
0.000262
0.000337
0.000365
0.000392
0.000487
0.000490
0.000502
0.000490
0.000480
0.000457
0.000442
0.000412
0.000415
0.000392
0.000402
0.000400
0.000417
0.000415
0.000457
0.000450
0.000452
0.000475
0.000457
0.000432
0.000435
0.000390
0.000365
0.000380
0.000367
0.000322
0.000340
0.000360
0.000372
0.000380
0.000417
0.000475
0.000457
0.000470
0.000472
0.000432
0.000422
0.000437
0.000417
0.000385
0.000400
0.000365
0.000387
0.000400
0.000422
0.000465
0.000437
0.000475
0.000500
0.000487
0.000520
0.000522
0.000465
0.000420
0.000412
0.000377
0.000395
0.000385
0.000345
0.000355
0.000400
0.000397
0.000412
0.000410
0.000457
0.000482
0.000492
0.000507
0.000507
0.000505
0.000472
0.000445
0.000410
0.000405
0.000400
0.000397
0.000392
0.000432
0.000450
0.000442
0.000512
0.000517
0.000540
0.000527
0.000572
0.000537
0.000507
0.000495
0.000470
0.000427
0.000420
0.000365
0.000372
0.000357
0.000370
0.000352
0.000390
0.000397
0.000432
0.000442
0.000490
0.000497
0.000492
0.000480
0.000455
0.000445
0.000417
0.000405
0.000412
0.000395
0.000405
0.000412
0.000442
0.000432
0.000455
0.000477
0.000477
0.000517
0.000492
0.000485
0.000495
0.000462
0.000435
0.000407
0.000410
0.000415
0.000412
0.000420
0.000425
0.000447
0.000465
0.000500
0.000507
0.000522
0.000562
0.000555
0.000517
0.000530
0.000485
0.000430
0.000465
0.000407
0.000405
0.000390
0.000415
0.000410
0.000407
0.000417
0.000447
0.000465
0.000440
0.000432
0.000435
0.000417
0.000457
0.000432
0.000452
0.000470
0.000450
0.000497
0.000465
0.000472
0.000462
0.000465
0.000507
0.000477
0.000490
0.000502
0.000487
0.000490
0.000457
0.000455
0.000457
0.000425
0.000412
0.000400
0.000417
0.000435
0.000437
0.000442
0.000477
0.000490
0.000470
0.000485
0.000490
0.000495
0.000472
0.000432
0.000452
0.000435
0.000420
0.000457
0.000417
0.000480
0.000477
0.000455
0.000490
0.000490
0.000470
0.000480
0.000505
0.000505
0.000497
0.000472
0.000455
0.000480
0.000415
0.000417
0.000440
0.000397
0.000422
0.000402
0.000445
0.000445
0.000435
0.000460
0.000447
0.000447
0.000445
0.000442
0.000405
0.000440
0.000440
0.000452
0.000487
0.000502
0.000512
0.000522
0.000520
0.000525
0.000540
0.000545
0.000565
0.000532
0.000515
0.000497
0.000492
0.000462
0.000485
0.000465
0.000437
0.000447
0.000432
0.000417
0.000392
0.000395
0.000427
0.000442
0.000450
0.000457
0.000475
0.000505
0.000495
0.000497
0.000492
0.000487
0.000477
0.000495
0.000480
0.000487
0.000480
0.000490
0.000492
0.000457
0.000482
0.000452
0.000472
0.000505
0.000512
0.000512
0.000520
0.000487
0.000492
0.000490
0.000485
0.000457
0.000470
0.000455
0.000487
0.000445
0.000452
0.000475
0.000485
0.000470
0.000487
0.000495
0.000470
0.000462
0.000457
0.000475
0.000460
0.000455
0.000475
0.000422
0.000462
0.000450
0.000452
0.000495
0.000522
0.000517
0.000550
0.000552
0.000542
0.000517
0.000525
0.000525
0.000455
0.000465
0.000445
0.000430
0.000442
0.000440
0.000455
0.000450
0.000462
0.000497
0.000490
0.000515
0.000517
0.000512
0.000497
0.000492
0.000505
0.000477
0.000502
0.000507
0.000475
0.000505
0.000502
0.000495
0.000497
0.000490
0.000500
0.000507
0.000500
0.000487
0.000495
0.000475
0.000490
0.000460
0.000465
0.000480
0.000487
0.000505
0.000470
0.000512
0.000525
0.000490
0.000515
0.000517
0.000490
0.000535
0.000510
0.000495
0.000482
0.000510
0.000517
0.000490
0.000507
0.000520
0.000502
0.000502
0.000510
0.000505
0.000497
0.000520
0.000525
0.000505
0.000525
0.000542
0.000535
0.000502
0.000530
0.000547
0.000495
0.000497
0.000520
0.000487
0.000505
0.000495
0.000472
0.000470
0.000482
0.000452
0.000470
0.000477
0.000502
0.000487
0.000480
0.000507
0.000505
0.000477
0.000515
0.000490
0.000480
0.000477
0.000472
0.000457
0.000452
0.000445
0.000462
0.000467
0.000460
0.000462
0.000460
0.000467
0.000485
0.000470
0.000475
0.000502
0.000482
0.000485
0.000485
0.000492
0.000455
0.000460
0.000477
0.000445
0.000467
0.000480
0.000477
0.000492
0.000487
0.000487
0.000520
0.000520
0.000510
0.000495
0.000480
0.000492
0.000482
0.000495
0.000465
0.000487
0.000487
0.000497
0.000480
0.000505
0.000492
0.000500
0.000530
0.000517
0.000492
0.000500
0.000492
0.000457
0.000480
0.000452
0.000462
0.000482
0.000492
0.000500
0.000492
0.000490
0.000500
0.000512
0.000502
0.000465
0.000485
0.000462
0.000485
0.000490
0.000490
0.000505
0.000482
0.000497
0.000515
0.000502
0.000520
0.000520
0.000512
0.000515
0.000517
0.000507
0.000472
0.000487
0.000487
0.000480
0.000497
0.000475
0.000510
0.000505
0.000512
0.000522
0.000537
0.000532
0.000545
0.000540
0.000540
0.000560
0.000537
0.000517
0.000495
0.000492
0.000447
0.000452
0.000477
0.000477
0.000490
0.000485
0.000475
0.000460
0.000467
0.000460
0.000470
0.000495
0.000485
0.000517
0.000500
0.000515
0.000520
0.000500
0.000522
0.000532
0.000520
0.000520
0.000540
0.000507
0.000482
0.000500
0.000495
0.000457
0.000492
0.000497
0.000495
0.000477
0.000492
0.000480
0.000442
0.000487
0.000490
0.000502
0.000525
0.000525
0.000527
0.000525
0.000530
0.000500
0.000495
0.000532
0.000515
0.000515
0.000515
0.000520
0.000497
0.000472
0.000505
0.000462
0.000485
0.000495
0.000502
0.000485
0.000490
0.000480
0.000487
0.000477
0.000512
0.000482
0.000505
0.000507
0.000510
0.000532
0.000515
0.000512
0.000457
0.000500
0.000515
0.000490
0.000500
0.000492
0.000515
0.000480
0.000497
0.000507
0.000510
0.000510
0.000512
0.000522
0.000525
0.000485
0.000497
0.000485
0.000500
0.000517
0.000495
0.000522
0.000522
0.000492
0.000495
0.000555
0.000510
0.000492
0.000525
0.000532
0.000507
0.000490
0.000525
0.000525
0.000515
0.000510
0.000540
0.000542
0.000502
0.000510
0.000500
0.000505
0.000535
0.000485
0.000492
0.000492
0.000470
0.000467
0.000462
0.000465
0.000455
0.000457
0.000487
0.000507
0.000495
0.000515
0.000522
0.000510
0.000490
0.000520
0.000510
0.000527
0.000545
0.000530
0.000545
0.000557
0.000535
0.000535
0.000537
0.000537
0.000517
0.000527
0.000535
0.000532
0.000492
0.000505
0.000525
0.000477
0.000502
0.000507
0.000492
0.000500
0.000540
0.000512
0.000525
0.000545
0.000520
0.000525
0.000515
0.000542
0.000510
0.000525
0.000517
0.000482
0.000465
0.000470
0.000505
0.000487
0.000502
0.000522
0.000512
0.000510
0.000507
0.000482
0.000515
0.000507
0.000497
0.000485
0.000470
0.000497
0.000490
0.000487
0.000497
0.000500
0.000497
0.000495
0.000482
0.000470
0.000475
0.000507
0.000500
0.000510
0.000535
0.000502
0.000470
0.000477
0.000507
0.000497
0.000505
0.000522
0.000512
0.000525
0.000522
0.000542
0.000510
0.000522
0.000520
0.000510
0.000492
0.000490
0.000490
0.000487
0.000520
0.000527
0.000500
0.000527
0.000520
0.000500
0.000490
0.000510
0.000510
0.000497
0.000550
0.000515
0.000497
0.000495
0.000525
0.000507
0.000500
0.000535
0.000505
0.000507
0.000522
0.000507
0.000495
0.000522
0.000525
0.000492
0.000510
0.000527
0.000495
0.000522
0.000487
0.000520
0.000490
0.000520
0.000510
0.000530
0.000530
0.000530
0.000517
0.000485
0.000527
0.000512
0.000485
0.000517
0.000510
0.000512
0.000555
0.000547
0.000555
0.000530
0.000540
0.000535
0.000542
0.000547
0.000542
0.000517
0.000492
0.000495
0.000497
0.000490
0.000510
0.000487
0.000510
0.000517
0.000530
0.000495
0.000517
0.000532
0.000502
0.000515
0.000522
0.000512
0.000482
0.000485
0.000510
0.000482
0.000522
0.000530
0.000537
0.000540
0.000572
0.000540
0.000552
0.000557
0.000557
0.000515
0.000525
0.000547
0.000512
0.000490
0.000515
0.000497
0.000515
0.000522
0.000535
0.000505
0.000497
0.000527
0.000482
0.000515
0.000520
0.000515
0.000500
0.000522
0.000517
0.000455
0.000505
0.000507
0.000510
0.000482
0.000532
0.000540
0.000522
0.000555
0.000550
0.000527
0.000545
0.000525
0.000535
0.000505
0.000545
0.000520
0.000515
0.000525
0.000530
0.000505
0.000492
0.000510
0.000500
0.000512
0.000552
0.000537
0.000520
0.000545
0.000567
0.000560
0.000532
0.000545
0.000552
0.000537
0.000552
0.000555
0.000535
0.000532
0.000557
0.000535
0.000522
0.000535
0.000512
0.000505
0.000510
0.000500
0.000502
0.000505
0.000535
0.000507
0.000490
0.000495
0.000512
0.000487
0.000502
0.000515
0.000515
0.000500
0.000555
0.000525
0.000542
0.000565
0.000525
0.000552
0.000537
0.000535
0.000515
0.000497
0.000532
0.000512
0.000545
0.000505
0.000535
0.000495
0.000517
0.000502
0.000490
0.000505
0.000517
0.000517
0.000505
0.000517
0.000532
0.000515
0.000517
0.000505
0.000522
0.000510
0.000517
0.000537
0.000520
0.000500
0.000507
0.000455
0.000477
0.000467
0.000480
0.000507
0.000500
0.000490
0.000497
0.000540
0.000535
0.000522
0.000537
0.000582
0.000555
0.000522
0.000555
0.000525
0.000505
0.000512
0.000515
0.000505
0.000530
0.000512
0.000505
0.000520
0.000515
0.000515
0.000525
0.000532
0.000545
0.000532
0.000517
0.000510
0.000480
0.000467
0.000490
0.000495
0.000507
0.000522
0.000535
0.000530
0.000545
0.000530
0.000530
0.000547
0.000535
0.000517
0.000510
0.000522
0.000507
0.000512
0.000512
0.000532
0.000502
0.000527
0.000517
0.000522
0.000502
0.000492
0.000517
0.000507
0.000537
0.000522
0.000507
0.000535
0.000547
0.000542
0.000552
0.000570
0.000540
0.000527
0.000565
0.000537
0.000537
0.000522
0.000542
0.000517
0.000522
0.000522
0.000550
0.000532
0.000537
0.000542
0.000527
0.000547
0.000552
0.000530
0.000572
0.000562
0.000550
0.000552
0.000545
0.000570
0.000532
0.000507
0.000540
0.000537
0.000530
0.000530
0.000532
0.000532
0.000550
0.000552
0.000515
0.000550
0.000547
0.000492
0.000520
0.000522
0.000530
0.000520
0.000505
0.000525
0.000510
0.000490
0.000512
0.000517
0.000500
0.000535
0.000527
0.000515
0.000517
0.000542
0.000505
0.000525
0.000527
0.000492
0.000510
0.000545
0.000497
0.000505
0.000517
0.000507
0.000520
0.000510
0.000532
0.000515
0.000517
0.000537
0.000510
0.000512
0.000527
0.000535
0.000527
0.000530
0.000522
0.000520
0.000540
0.000532
0.000552
0.000542
0.000542
0.000545
0.000527
0.000540
0.000545
0.000535
0.000522
0.000562
0.000537
0.000512
0.000545
0.000535
0.000547
0.000510
0.000507
0.000465
0.000492
0.000490
0.000487
0.000502
0.000530
0.000535
0.000532
0.000515
0.000570
0.000575
0.000547
0.000565
0.000580
0.000565
0.000550
0.000547
0.000550
0.000537
0.000550
0.000527
0.000520
0.000560
0.000532
0.000520
0.000517
0.000535
0.000550
0.000505
0.000535
0.000545
0.000545
0.000510
0.000560
0.000515
0.000540
0.000535
0.000550
0.000540
0.000560
0.000567
0.000547
0.000552
0.000580
0.000535
0.000562
0.000567
0.000550
0.000520
0.000515
0.000550
0.000555
0.000527
0.000575
0.000577
0.000547
0.000552
0.000547
0.000520
0.000570
0.000537
0.000532
0.000555
0.000515
0.000520
0.000507
0.000527
0.000520
0.000507
0.000510
0.000490
0.000492
0.000490
0.000505
0.000522
0.000510
0.000522
0.000532
0.000507
0.000537
0.000527
0.000517
0.000552
0.000507
0.000540
0.000552
0.000530
0.000547
0.000552
0.000542
0.000525
0.000555
0.000490
0.000555
0.000522
0.000525
0.000532
0.000505
0.000530
0.000530
0.000520
0.000540
0.000565
0.000535
0.000535
0.000562
0.000537
0.000522
0.000520
0.000480
0.000517
0.000492
0.000517
0.000547
0.000537
0.000540
0.000522
0.000570
0.000572
0.000572
0.000530
0.000525
0.000537
0.000517
0.000517
0.000510
0.000505
0.000515
0.000512
0.000530
0.000505
0.000555
0.000540
0.000545
0.000565
0.000547
0.000545
0.000530
0.000550
0.000555
0.000530
0.000525
0.000540
0.000520
0.000495
0.000515
0.000515
0.000500
0.000510
0.000515
0.000522
0.000510
0.000527
0.000535
0.000535
0.000542
0.000550
0.000530
0.000520
0.000527
0.000500
0.000490
0.000505
0.000527
0.000502
0.000522
0.000542
0.000512
0.000497
0.000512
0.000540
0.000532
0.000540
0.000585
0.000542
0.000545
0.000535
0.000540
0.000510
0.000510
0.000542
0.000525
0.000512
0.000520
0.000507
0.000545
0.000522
0.000537
0.000570
0.000575
0.000575
0.000557
0.000542
0.000587
0.000540
0.000535
0.000557
0.000525
0.000525
0.000552
0.000540
0.000552
0.000550
0.000552
0.000567
0.000575
0.000555
0.000562
0.000552
0.000532
0.000540
0.000545
0.000500
0.000542
0.000525
0.000522
0.000525
0.000527
0.000507
0.000510
0.000540
0.000535
0.000535
0.000525
0.000527
0.000542
0.000537
0.000520
0.000532
0.000542
0.000522
0.000555
0.000517
0.000550
0.000547
0.000537
0.000560
0.000545
0.000547
0.000550
0.000545
0.000545
0.000557
0.000557
0.000570
0.000545
0.000545
0.000527
0.000530
0.000497
0.000510
0.000527
0.000510
0.000532
0.000530
0.000575
0.000542
0.000582
0.000560
0.000557
0.000550
0.000520
0.000547
0.000535
0.000537
0.000535
0.000515
0.000530
0.000542
0.000527
0.000550
0.000567
0.000545
0.000542
0.000552
0.000525
0.000530
0.000527
0.000532
0.000527
0.000517
0.000552
0.000522
0.000525
0.000527
0.000550
0.000532
0.000537
0.000542
0.000512
0.000540
0.000527
0.000525
0.000550
0.000545
0.000537
0.000542
0.000547
0.000552
0.000537
0.000520
0.000527
0.000547
0.000505
0.000522
0.000545
0.000535
0.000552
0.000535
0.000517
0.000537
0.000515
0.000525
0.000510
0.000535
0.000562
0.000492
0.000525
0.000542
0.000555
0.000552
0.000567
0.000567
0.000545
0.000522
0.000522
0.000530
0.000530
0.000530
0.000540
0.000542
0.000557
0.000542
0.000540
0.000562
0.000552
0.000535
0.000560
0.000547
0.000530
0.000510
0.000535
0.000535
0.000500
0.000507
0.000550
0.000487
0.000532
0.000540
0.000522
0.000520
0.000545
0.000547
0.000552
0.000560
0.000557
0.000575
0.000552
0.000550
0.000520
0.000540
0.000547
0.000530
0.000535
0.000532
0.000542
0.000520
0.000495
0.000555
0.000542
0.000515
0.000537
0.000567
0.000532
0.000572
0.000535
0.000542
0.000540
0.000510
0.000532
0.000555
0.000532
0.000497
0.000480
0.000525
0.000532
0.000492
0.000522
0.000532
0.000540
0.000527
0.000560
0.000582
0.000555
0.000562
0.000570
0.000550
0.000527
0.000535
0.000537
0.000515
0.000545
0.000517
0.000542
0.000545
0.000530
0.000525
0.000547
0.000547
0.000567
0.000567
0.000557
0.000600
0.000582
0.000585
0.000572
0.000545
0.000522
0.000547
0.000552
0.000540
0.000572
0.000550
0.000537
0.000562
0.000535
0.000550
0.000552
0.000535
0.000540
0.000542
0.000545
0.000537
0.000532
0.000555
0.000565
0.000540
0.000542
0.000580
0.000560
0.000555
0.000567
0.000555
0.000557
0.000567
0.000572
0.000550
0.000577
0.000560
0.000522
0.000517
0.000545
0.000527
0.000520
0.000562
0.000527
0.000502
0.000547
0.000552
0.000512
0.000522
0.000550
0.000572
0.000560
0.000555
0.000577
0.000532
0.000567
0.000557
0.000537
0.000542
0.000570
0.000557
0.000537
0.000560
0.000540
0.000522
0.000542
0.000547
0.000520
0.000535
0.000540
0.000537
0.000550
0.000527
0.000587
0.000547
0.000540
0.000575
0.000540
0.000547
0.000575
0.000565
0.000510
0.000537
0.000545
0.000515
0.000540
0.000537
0.000500
0.000525
0.000547
0.000550
0.000550
0.000560
0.000550
0.000535
0.000525
0.000557
0.000552
0.000510
0.000540
0.000552
0.000515
0.000540
0.000552
0.000545
0.000570
0.000550
0.000530
0.000512
0.000550
0.000555
0.000502
0.000532
0.000545
0.000527
0.000500
0.000535
0.000515
0.000547
0.000540
0.000552
0.000525
0.000540
0.000557
0.000545
0.000525
0.000572
0.000552
0.000525
0.000537
0.000577
0.000512
0.000535
0.000550
0.000522
0.000542
0.000572
0.000542
0.000550
0.000555
0.000560
0.000542
0.000565
0.000570
0.000557
0.000540
0.000565
0.000570
0.000537
0.000555
0.000565
0.000527
0.000542
0.000565
0.000517
0.000530
0.000537
0.000550
0.000547
0.000532
0.000540
0.000545
0.000535
0.000542
0.000525
0.000497
0.000550
0.000525
0.000525
0.000560
0.000562
0.000535
0.000580
0.000550
0.000517
0.000517
0.000545
0.000547
0.000520
0.000535
0.000557
0.000547
0.000540
0.000570
0.000537
0.000510
0.000557
0.000557
0.000537
0.000577
0.000555
0.000522
0.000547
0.000565
0.000547
0.000542
0.000587
0.000570
0.000522
0.000560
0.000542
0.000525
0.000555
0.000550
0.000547
0.000550
0.000562
0.000560
0.000515
0.000535
0.000560
0.000542
0.000527
0.000605
0.000562
0.000545
0.000577
0.000590
0.000545
0.000560
0.000545
0.000557
0.000540
0.000565
0.000540
0.000530
0.000525
0.000555
0.000522
0.000557
0.000582
0.000532
0.000562
0.000582
0.000560
0.000552
0.000562
0.000570
0.000517
0.000540
0.000537
0.000505
0.000532
0.000562
0.000537
0.000537
0.000537
0.000555
0.000510
0.000557
0.000565
0.000510
0.000537
0.000582
0.000547
0.000560
0.000580
0.000532
0.000552
0.000540
0.000572
0.000535
0.000530
0.000557
0.000570
0.000552
0.000562
0.000562
0.000525
0.000590
0.000567
0.000530
0.000540
0.000572
0.000535
0.000555
0.000592
0.000550
0.000550
0.000547
0.000557
0.000547
0.000570
0.000555
0.000542
0.000517
0.000542
0.000567
0.000515
0.000555
0.000587
0.000555
0.000552
0.000600
0.000552
0.000532
0.000552
0.000547
0.000517
0.000517
0.000520
0.000542
0.000542
0.000532
0.000572
0.000527
0.000577
0.000560
0.000532
0.000550
0.000585
0.000532
0.000532
0.000547
0.000540
0.000552
0.000542
0.000545
0.000530
0.000535
0.000557
0.000535
0.000522
0.000572
0.000562
0.000522
0.000580
0.000582
0.000555
0.000560
0.000587
0.000562
0.000547
0.000602
0.000595
0.000580
0.000572
0.000582
0.000515
0.000550
0.000552
0.000517
0.000535
0.000567
0.000567
0.000547
0.000552
0.000585
0.000537
0.000557
0.000552
0.000537
0.000542
0.000542
0.000567
0.000525
0.000527
0.000547
0.000542
0.000535
0.000562
0.000530
0.000540
0.000557
0.000570
0.000520
0.000542
0.000557
0.000565
0.000532
0.000540
0.000535
0.000522
0.000577
0.000537
0.000522
0.000562
0.000547
0.000530
0.000530
0.000575
0.000522
0.000545
0.000537
0.000552
0.000550
0.000520
0.000562
0.000525
0.000535
0.000560
0.000540
0.000530
0.000545
0.000580
0.000540
0.000555
0.000527
0.000550
0.000537
0.000557
0.000555
0.000540
0.000537
0.000540
0.000510
0.000525
0.000567
0.000542
0.000540
0.000587
0.000552
0.000535
0.000555
0.000570
0.000527
0.000562
0.000567
0.000530
0.000570
0.000535
0.000532
0.000505
0.000537
0.000540
0.000535
0.000552
0.000565
0.000552
0.000525
0.000567
0.000537
0.000557
0.000567
0.000590
0.000572
0.000562
0.000582
0.000540
0.000550
0.000557
0.000540
0.000557
0.000570
0.000560
0.000552
0.000547
0.000537
0.000530
0.000522
0.000552
0.000525
0.000565
0.000565
0.000525
0.000527
0.000540
0.000542
0.000537
0.000577
0.000565
0.000557
0.000552
0.000572
0.000607
0.000560
0.000542
0.000572
0.000530
0.000562
0.000565
0.000547
0.000535
0.000545
0.000540
0.000530
0.000545
0.000537
0.000555
0.000542
0.000557
0.000540
0.000532
0.000550
0.000577
0.000575
0.000567
0.000590
0.000550
0.000535
0.000575
0.000552
0.000552
0.000567
0.000547
0.000525
0.000525
0.000537
0.000532
0.000535
0.000562
0.000535
0.000530
0.000555
0.000567
0.000540
0.000587
0.000580
0.000582
0.000567
0.000580
0.000585
0.000550
0.000565
0.000570
0.000535
0.000540
0.000555
0.000545
0.000522
0.000552
0.000542
0.000570
0.000577
0.000557
0.000572
0.000577
0.000592
0.000577
0.000595
0.000587
0.000567
0.000552
0.000572
0.000595
0.000545
0.000542
0.000572
0.000542
0.000555
0.000557
0.000557
0.000542
0.000547
0.000542
0.000557
0.000530
0.000575
0.000555
0.000552
0.000555
0.000562
0.000555
0.000577
0.000572
0.000547
0.000567
0.000592
0.000565
0.000565
0.000577
0.000572
0.000567
0.000527
0.000560
0.000540
0.000525
0.000560
0.000555
0.000550
0.000580
0.000580
0.000560
0.000600
0.000532
0.000550
0.000565
0.000580
0.000552
0.000552
0.000560
0.000562
0.000560
0.000562
0.000555
0.000525
0.000522
0.000527
0.000532
0.000525
0.000545
0.000567
0.000562
0.000550
0.000587
0.000580
0.000565
0.000570
0.000565
0.000547
0.000590
0.000587
0.000567
0.000572
0.000582
0.000570
0.000577
0.000580
0.000555
0.000560
0.000570
0.000537
0.000560
0.000567
0.000557
0.000567
0.000517
0.000547
0.000570
0.000547
0.000557
0.000582
0.000542
0.000567
0.000582
0.000535
0.000572
0.000580
0.000570
0.000555
0.000545
0.000560
0.000532
0.000510
0.000562
0.000560
0.000510
0.000545
0.000572
0.000530
0.000557
0.000562
0.000565
0.000560
0.000557
0.000555
0.000575
0.000567
0.000572
0.000557
0.000565
0.000577
0.000565
0.000540
0.000587
0.000567
0.000557
0.000587
0.000585
0.000550
0.000580
0.000572
0.000552
0.000577
0.000550
0.000557
0.000532
0.000530
0.000565
0.000562
0.000547
0.000572
0.000560
0.000550
0.000595
0.000560
0.000550
0.000567
0.000542
0.000515
0.000547
0.000560
0.000535
0.000557
0.000535
0.000560
0.000560
0.000525
0.000545
0.000542
0.000527
0.000552
0.000542
0.000540
0.000562
0.000557
0.000540
0.000565
0.000575
0.000575
0.000592
0.000587
0.000585
0.000555
0.000560
0.000555
0.000515
0.000545
0.000560
0.000545
0.000537
0.000537
0.000535
0.000515
0.000527
0.000565
0.000555
0.000572
0.000545
0.000575
0.000552
0.000525
0.000552
0.000540
0.000547
0.000547
0.000555
0.000555
0.000547
0.000550
0.000522
0.000557
0.000552
0.000532
0.000547
0.000582
0.000540
0.000552
0.000572
0.000575
0.000597
0.000577
0.000570
0.000585
0.000567
0.000572
0.000555
0.000567
0.000557
0.000520
0.000557
0.000585
0.000567
0.000560
0.000542
0.000537
0.000545
0.000575
0.000577
0.000587
0.000587
0.000585
0.000577
0.000585
0.000540
0.000530
0.000557
0.000565
0.000537
0.000545
0.000540
0.000555
0.000570
0.000545
0.000545
0.000547
0.000565
0.000550
0.000545
0.000577
0.000570
0.000562
0.000552
0.000562
0.000565
0.000557
0.000587
0.000575
0.000570
0.000565
0.000547
0.000555
0.000527
0.000542
0.000565
0.000567
0.000510
0.000562
0.000540
0.000540
0.000537
0.000545
0.000565
0.000557
0.000562
0.000555
0.000545
0.000530
0.000562
0.000557
0.000550
0.000572
0.000550
0.000545
0.000585
0.000555
0.000567
0.000560
0.000552
0.000552
0.000527
0.000555
0.000552
0.000557
0.000545
0.000540
0.000565
0.000585
0.000562
0.000557
0.000572
0.000590
0.000542
0.000552
0.000555
0.000565
0.000545
0.000555
0.000545
0.000542
0.000525
0.000515
0.000542
0.000560
0.000555
0.000565
0.000540
0.000575
0.000580
0.000550
0.000567
0.000550
0.000567
0.000560
0.000565
0.000575
0.000560
0.000575
0.000582
0.000562
0.000550
0.000560
0.000520
0.000527
0.000550
0.000550
0.000545
0.000545
0.000580
0.000537
0.000522
0.000552
0.000532
0.000575
0.000572
0.000580
0.000552
0.000552
0.000567
0.000577
0.000560
0.000572
0.000557
0.000537
0.000590
0.000560
0.000565
0.000570
0.000547
0.000532
0.000535
0.000545
0.000552
0.000532
0.000542
0.000572
0.000537
0.000495
0.000545
0.000530
0.000522
0.000572
0.000565
0.000557
0.000567
0.000562
0.000562
0.000580
0.000557
0.000567
0.000552
0.000557
0.000592
0.000547
0.000522
0.000547
0.000530
0.000530
0.000572
0.000567
0.000542
0.000567
0.000577
0.000552
0.000545
0.000562
0.000560
0.000555
0.000562
0.000580
0.000550
0.000532
0.000560
0.000560
0.000540
0.000577
0.000555
0.000545
0.000587
0.000570
0.000555
0.000572
0.000585
0.000597
0.000560
0.000577
0.000567
0.000562
0.000585
0.000587
0.000575
0.000575
0.000597
0.000562
0.000577
0.000577
0.000555
0.000547
0.000550
0.000535
0.000560
0.000575
0.000577
0.000572
0.000542
0.000547
0.000545
0.000537
0.000525
0.000585
0.000545
0.000517
0.000555
0.000547
0.000530
0.000550
0.000540
0.000535
0.000545
0.000547
0.000530
0.000550
0.000555
0.000565
0.000552
0.000562
0.000535
0.000537
0.000562
0.000560
0.000562
0.000547
0.000537
0.000555
0.000527
0.000520
0.000550
0.000547
0.000545
0.000567
0.000535
0.000542
0.000542
0.000557
0.000525
0.000525
0.000555
0.000557
0.000567
0.000570
0.000582
0.000580
0.000557
0.000555
0.000580
0.000565
0.000555
0.000577
0.000540
0.000567
0.000527
0.000530
0.000572
0.000545
0.000557
0.000565
0.000570
0.000577
0.000547
0.000522
0.000572
0.000557
0.000560
0.000555
0.000552
0.000577
0.000562
0.000570
0.000557
0.000570
0.000545
0.000510
0.000552
0.000527
0.000537
0.000550
0.000530
0.000530
0.000542
0.000535
0.000562
0.000555
0.000565
0.000565
0.000562
0.000552
0.000582
0.000567
0.000575
0.000575
0.000542
0.000567
0.000547
0.000537
0.000545
0.000540
0.000560
0.000570
0.000572
0.000572
0.000555
0.000547
0.000575
0.000557
0.000567
0.000580
0.000577
0.000600
0.000575
0.000565
0.000552
0.000550
0.000557
0.000562
0.000555
0.000572
0.000587
0.000585
0.000565
0.000575
0.000555
0.000570
0.000587
0.000570
0.000575
0.000557
0.000547
0.000547
0.000557
0.000522
0.000520
0.000530
0.000540
0.000552
0.000532
0.000567
0.000572
0.000552
0.000550
0.000582
0.000535
0.000557
0.000542
0.000545
0.000540
0.000562
0.000557
0.000550
0.000560
0.000562
0.000545
0.000552
0.000557
0.000560
0.000515
0.000547
0.000562
0.000545
0.000567
0.000572
0.000545
0.000560
0.000562
0.000545
0.000572
0.000567
0.000565
0.000557
0.000555
0.000565
0.000562
0.000520
0.000547
0.000527
0.000540
0.000582
0.000545
0.000580
0.000577
0.000552
0.000555
0.000570
0.000542
0.000557
0.000565
0.000582
0.000557
0.000540
0.000557
0.000580
0.000547
0.000557
0.000542
0.000542
0.000535
0.000560
0.000530
0.000560
0.000552
0.000542
0.000547
0.000550
0.000592
0.000582
0.000572
0.000572
0.000550
0.000532
0.000562
0.000570
0.000560
0.000560
0.000570
0.000565
0.000560
0.000592
0.000555
0.000565
0.000562
0.000572
0.000570
0.000555
0.000577
0.000557
0.000547
0.000555
0.000530
0.000507
0.000552
0.000552
0.000537
0.000532
0.000550
0.000532
0.000542
0.000552
0.000557
0.000597
0.000572
0.000565
0.000582
0.000565
0.000567
0.000577
0.000567
0.000582
0.000560
0.000547
0.000557
0.000570
0.000525
0.000535
0.000557
0.000545
0.000545
0.000545
0.000582
0.000557
0.000537
0.000575
0.000555
0.000562
0.000595
0.000567
0.000595
0.000595
0.000540
0.000582
0.000585
0.000602
0.000572
0.000575
0.000580
0.000575
0.000560
0.000562
0.000562
0.000537
0.000537
0.000570
0.000542
0.000557
0.000540
0.000532
0.000532
0.000555
0.000565
0.000575
0.000572
0.000567
0.000557
0.000590
0.000592
0.000557
0.000570
0.000567
0.000565
0.000532
0.000570
0.000557
0.000535
0.000565
0.000555
0.000550
0.000562
0.000572
0.000552
0.000545
0.000567
0.000560
0.000570
0.000545
0.000577
0.000557
0.000545
0.000582
0.000560
0.000537
0.000582
0.000620
0.000557
0.000580
0.000622
0.000592
0.000575
0.000577
0.000565
0.000542
0.000555
0.000542
0.000537
0.000565
0.000555
0.000545
0.000532
0.000565
0.000545
0.000540
0.000555
0.000592
0.000557
0.000550
0.000567
0.000560
0.000570
0.000562
0.000567
0.000525
0.000545
0.000565
0.000542
0.000525
0.000585
0.000552
0.000545
0.000557
0.000567
0.000550
0.000520
0.000562
0.000572
0.000562
0.000555
0.000552
0.000540
0.000570
0.000585
0.000552
0.000577
0.000605
0.000590
0.000562
0.000562
0.000562
0.000527
0.000562
0.000555
0.000565
0.000562
0.000560
0.000542
0.000550
0.000535
0.000547
0.000520
0.000532
0.000540
0.000537
0.000540
0.000552
0.000532
0.000525
0.000547
0.000537
0.000537
0.000525
0.000555
0.000527
0.000545
0.000547
0.000555
0.000545
0.000567
0.000585
0.000565
0.000585
0.000580
0.000547
0.000565
0.000562
0.000562
0.000567
0.000567
0.000560
0.000555
0.000567
0.000550
0.000582
0.000552
0.000580
0.000567
0.000565
0.000567
0.000542
0.000527
0.000550
0.000565
0.000572
0.000595
0.000587
0.000602
0.000587
0.000570
0.000590
0.000592
0.000582
0.000595
0.000595
0.000570
0.000580
0.000550
0.000547
0.000552
0.000552
0.000570
0.000565
0.000575
0.000585
0.000555
0.000602
0.000600
0.000577
0.000572
0.000582
0.000577
0.000555
0.000562
0.000542
0.000552
0.000550
0.000530
0.000530
0.000530
0.000545
0.000557
0.000585
0.000562
0.000542
0.000545
0.000560
0.000572
0.000560
0.000582
0.000567
0.000570
0.000572
0.000567
0.000580
0.000562
0.000545
0.000580
0.000580
0.000575
0.000575
0.000545
0.000562
0.000595
0.000560
0.000575
0.000552
0.000555
0.000542
0.000552
0.000542
0.000525
0.000580
0.000542
0.000572
0.000577
0.000585
0.000582
0.000565
0.000572
0.000577
0.000557
0.000552
0.000580
0.000540
0.000545
0.000550
0.000525
0.000540
0.000527
0.000522
0.000545
0.000545
0.000532
0.000570
0.000537
0.000570
0.000550
0.000542
0.000582
0.000585
0.000547
0.000575
0.000565
0.000550
0.000555
0.000580
0.000560
0.000585
0.000585
0.000565
0.000562
0.000565
0.000555
0.000560
0.000542
0.000572
0.000550
0.000532
0.000560
0.000537
0.000537
0.000562
0.000555
0.000537
0.000572
0.000600
0.000555
0.000537
0.000557
0.000552
0.000567
0.000585
0.000555
0.000565
0.000550
0.000580
0.000567
0.000545
0.000552
0.000585
0.000525
0.000605
0.000567
0.000550
0.000560
0.000580
0.000567
0.000567
0.000585
0.000592
0.000565
0.000567
0.000552
0.000545
0.000530
0.000582
0.000542
0.000527
0.000577
0.000557
0.000535
0.000572
0.000557
0.000542
0.000530
0.000572
0.000547
0.000562
0.000550
0.000567
0.000545
0.000580
0.000592
0.000570
0.000567
0.000600
0.000567
0.000547
0.000577
0.000575
0.000542
0.000547
0.000565
0.000542
0.000537
0.000567
0.000562
0.000552
0.000577
0.000580
0.000575
0.000567
0.000600
0.000572
0.000577
0.000602
0.000592
0.000547
0.000575
0.000605
0.000562
0.000572
0.000585
0.000585
0.000555
0.000560
0.000560
0.000535
0.000562
0.000550
0.000535
0.000545
0.000555
0.000557
0.000570
0.000567
0.000565
0.000560
0.000562
0.000580
0.000570
0.000555
0.000595
0.000567
0.000535
0.000577
0.000567
0.000545
0.000555
0.000555
0.000550
0.000555
0.000535
0.000535
0.000532
0.000540
0.000545
0.000560
0.000552
0.000575
0.000572
0.000580
0.000575
0.000575
0.000545
0.000585
0.000542
0.000545
0.000552
0.000587
0.000555
0.000555
0.000542
0.000552
0.000522
0.000552
0.000575
0.000562
0.000537
0.000565
0.000527
0.000547
0.000575
0.000565
0.000545
0.000587
0.000587
0.000557
0.000567
0.000570
0.000577
0.000557
0.000552
0.000570
0.000552
0.000570
0.000560
0.000555
0.000552
0.000565
0.000540
0.000555
0.000590
0.000540
0.000562
0.000567
0.000572
0.000540
0.000560
0.000555
0.000560
0.000560
0.000580
0.000572
0.000532
0.000592
0.000570
0.000572
0.000597
0.000577
0.000570
0.000555
0.000567
0.000525
0.000552
0.000570
0.000577
0.000585
0.000587
0.000592
0.000575
0.000555
0.000572
0.000542
0.000552
0.000590
0.000572
0.000575
0.000570
0.000575
0.000565
0.000545
0.000580
0.000552
0.000562
0.000555
0.000572
0.000552
0.000565
0.000595
0.000555
0.000567
0.000582
0.000577
0.000557
0.000582
0.000585
0.000572
0.000577
0.000567
0.000565
0.000540
0.000580
0.000560
0.000552
0.000547
0.000537
0.000532
0.000557
0.000560
0.000540
0.000550
0.000585
0.000542
0.000562
0.000570
0.000585
0.000560
0.000602
0.000587
0.000570
0.000547
0.000602
0.000582
0.000572
0.000602
0.000580
0.000562
0.000587
0.000555
0.000560
0.000582
0.000565
0.000590
0.000550
0.000575
0.000560
0.000552
0.000545
0.000575
0.000560
0.000537
0.000567
0.000585
0.000575
0.000582
0.000585
0.000562
0.000582
0.000555
0.000552
0.000552
0.000572
0.000595
0.000542
0.000572
0.000575
0.000547
0.000567
0.000607
0.000547
0.000565
0.000577
0.000572
0.000565
0.000562
0.000565
0.000535
0.000572
0.000542
0.000527
0.000540
0.000577
0.000562
0.000557
0.000587
0.000572
0.000540
0.000540
0.000567
0.000550
0.000577
0.000585
0.000570
0.000590
0.000562
0.000567
0.000597
0.000575
0.000597
0.000597
0.000575
0.000572
0.000580
0.000545
0.000550
0.000590
0.000560
0.000550
0.000587
0.000555
0.000540
0.000555
0.000550
0.000557
0.000555
0.000567
0.000572
0.000572
0.000577
0.000547
0.000547
0.000557
0.000550
0.000567
0.000572
0.000570
0.000567
0.000537
0.000562
0.000547
0.000562
0.000545
0.000560
0.000547
0.000547
0.000570
0.000535
0.000547
0.000575
0.000552
0.000547
0.000565
0.000572
0.000560
0.000562
0.000545
0.000547
0.000560
0.000577
0.000557
0.000550
0.000565
0.000562
0.000562
0.000567
0.000587
0.000552
0.000570
0.000562
0.000560
0.000580
0.000582
0.000557
0.000577
0.000565
0.000562
0.000585
0.000567
0.000580
0.000562
0.000587
0.000552
0.000590
0.000592
0.000597
0.000590
0.000580
0.000585
0.000582
0.000575
0.000570
0.000582
0.000585
0.000567
0.000575
0.000595
0.000562
0.000557
0.000562
0.000570
0.000565
0.000527
0.000560
0.000557
0.000557
0.000570
0.000540
0.000527
0.000557
0.000540
0.000557
0.000575
0.000560
0.000567
0.000582
0.000540
0.000535
0.000537
0.000537
0.000550
0.000557
0.000565
0.000560
0.000552
0.000595
0.000552
0.000562
0.000587
0.000572
0.000562
0.000562
0.000562
0.000542
0.000552
0.000552
0.000555
0.000545
0.000510
0.000550
0.000540
0.000540
0.000575
0.000555
0.000552
0.000572
0.000570
0.000572
0.000585
0.000590
0.000550
0.000575
0.000565
0.000572
0.000582
0.000600
0.000605
0.000557
0.000565
0.000560
0.000550
0.000550
0.000552
0.000572
0.000562
0.000560
0.000577
0.000560
0.000542
0.000550
0.000547
0.000562
0.000582
0.000582
0.000537
0.000565
0.000557
0.000532
0.000557
0.000577
0.000562
0.000552
0.000555
0.000580
0.000547
0.000562
0.000597
0.000555
0.000550
0.000565
0.000570
0.000557
0.000585
0.000575
0.000562
0.000595
0.000585
0.000582
0.000592
0.000580
0.000592
0.000562
0.000565
0.000567
0.000547
0.000555
0.000570
0.000555
0.000557
0.000575
0.000587
0.000562
0.000582
0.000597
0.000577
0.000582
0.000572
0.000585
0.000562
0.000587
0.000565
0.000567
0.000557
0.000522
0.000547
0.000542
0.000547
0.000552
0.000575
0.000555
0.000572
0.000555
0.000557
0.000550
0.000560
0.000542
0.000565
0.000562
0.000555
0.000555
0.000532
0.000535
0.000560
0.000555
0.000557
0.000575
0.000562
0.000560
0.000547
0.000527
0.000552
0.000550
0.000525
0.000550
0.000552
0.000565
0.000552
0.000557
0.000575
0.000565
0.000555
0.000540
0.000562
0.000547
0.000545
0.000547
0.000565
0.000542
0.000555
0.000547
0.000550
0.000567
0.000565
0.000557
0.000550
0.000562
0.000580
0.000555
0.000567
0.000592
0.000555
0.000577
0.000567
0.000570
0.000557
0.000557
0.000572
0.000575
0.000597
0.000575
0.000567
0.000565
0.000542
0.000562
0.000545
0.000562
0.000560
0.000560
0.000565
0.000582
0.000550
0.000572
0.000590
0.000577
0.000580
0.000577
0.000572
0.000585
0.000590
0.000580
0.000570
0.000567
0.000555
0.000565
0.000550
0.000540
0.000557
0.000527
0.000535
0.000552
0.000535
0.000517
0.000532
0.000542
0.000540
0.000532
0.000547
0.000532
0.000532
0.000550
0.000532
0.000567
0.000572
0.000532
0.000555
0.000542
0.000570
0.000562
0.000560
0.000597
0.000587
0.000592
0.000565
0.000590
0.000560
0.000572
0.000607
0.000572
0.000567
0.000570
0.000567
0.000570
0.000567
0.000555
0.000545
0.000560
0.000567
0.000567
0.000547
0.000572
0.000552
0.000560
0.000567
0.000572
0.000550
0.000547
0.000557
0.000565
0.000525
0.000545
0.000547
0.000557
0.000562
0.000547
0.000572
0.000560
0.000575
0.000577
0.000572
0.000590
0.000560
0.000545
0.000572
0.000595
0.000550
0.000565
0.000605
0.000575
0.000565
0.000585
0.000577
0.000575
0.000565
0.000562
0.000577
0.000570
0.000567
0.000580
0.000562
0.000577
0.000552
0.000562
0.000577
0.000580
0.000577
0.000560
0.000560
0.000567
0.000587
0.000562
0.000572
0.000587
0.000580
0.000575
0.000585
0.000562
0.000555
0.000567
0.000550
0.000560
0.000570
0.000535
0.000557
0.000577
0.000545
0.000550
0.000575
0.000522
0.000567
0.000572
0.000555
0.000570
0.000577
0.000542
0.000585
0.000562
0.000562
0.000587
0.000552
0.000565
0.000570
0.000552
0.000562
0.000560
0.000577
0.000577
0.000575
0.000545
0.000562
0.000532
0.000550
0.000565
0.000570
0.000575
0.000570
0.000577
0.000555
0.000572
0.000547
0.000567
0.000557
0.000552
0.000570
0.000562
0.000565
0.000542
0.000567
0.000582
0.000572
0.000545
0.000567
0.000562
0.000555
0.000540
0.000560
0.000562
0.000585
0.000582
0.000575
0.000562
0.000550
0.000575
0.000557
0.000582
0.000550
0.000535
0.000545
0.000545
0.000560
0.000562
0.000552
0.000567
0.000575
0.000542
0.000565
0.000577
0.000557
0.000570
0.000567
0.000547
0.000600
0.000567
0.000562
0.000582
0.000567
0.000585
0.000567
0.000575
0.000545
0.000585
0.000567
0.000587
0.000575
0.000555
0.000552
0.000580
0.000545
0.000572
0.000570
0.000560
0.000575
0.000572
0.000562
0.000605
0.000575
0.000562
0.000575
0.000570
0.000580
0.000592
0.000557
0.000602
0.000565
0.000560
0.000572
0.000555
0.000545
0.000562
0.000577
0.000562
0.000565
0.000542
0.000575
0.000570
0.000540
0.000560
0.000555
0.000532
0.000552
0.000570
0.000547
0.000562
0.000570
0.000557
0.000587
0.000575
0.000562
0.000560
0.000547
0.000567
0.000577
0.000547
0.000562
0.000567
0.000547
0.000540
0.000582
0.000562
0.000537
0.000552
0.000552
0.000565
0.000572
0.000537
0.000557
0.000572
0.000545
0.000555
0.000555
0.000572
0.000552
0.000547
0.000587
0.000567
0.000565
0.000535
0.000570
0.000537
0.000535
0.000587
0.000555
0.000562
0.000570
0.000577
0.000565
0.000562
0.000575
0.000560
0.000560
0.000580
0.000572
0.000590
0.000552
0.000565
0.000550
0.000535
0.000560
0.000555
0.000520
0.000565
0.000545
0.000562
0.000572
0.000572
0.000562
0.000582
0.000572
0.000575
0.000580
0.000570
0.000570
0.000562
0.000552
0.000540
0.000552
0.000570
0.000560
t0(sec) = 0.000000E+0
dt(sec) = 4.000000E-10
F4:INSP "
DESCRIPTOR_NAME    : WAVEDESC           
TEMPLATE_NAME      : LECROY_2_3         
COMM_TYPE          : word               
COMM_ORDER         : HIFIRST            
WAVE_DESCRIPTOR    : 346                
USER_TEXT          : 0                  
RES_DESC1          : 0                  
TRIGTIME_ARRAY     : 0                  
RIS_TIME_ARRAY     : 0                  
RES_ARRAY1         : 0                  
WAVE_ARRAY_1       : 9932               
WAVE_ARRAY_2       : 0                  
RES_ARRAY2         : 0                  
RES_ARRAY3         : 0                  
INSTRUMENT_NAME    : LECROYHDO6104      
INSTRUMENT_NUMBER  : 6308               
TRACE_LABEL        :                    
RESERVED1          : 4966               
RESERVED2          : 0                  
WAVE_ARRAY_COUNT   : 4966               
PNTS_PER_SCREEN    : 5000               
FIRST_VALID_PNT    : 0                  
LAST_VALID_PNT     : 4965               
FIRST_POINT        : 0                  
SPARSING_FACTOR    : 1                  
SEGMENT_INDEX      : 0                  
SUBARRAY_COUNT     : 1                  
SWEEPS_PER_ACQ     : 200                
POINTS_PER_PAIR    : 0                  
PAIR_OFFSET        : 0                  
VERTICAL_GAIN      : 2.6238e-006        
VERTICAL_OFFSET    : 6.8001e-002        
MAX_VALUE          : 2.7366e+004        
MIN_VALUE          : 1.2377e+004        
NOMINAL_BITS       : 16                 
NOM_SUBARRAY_COUNT : 1                  
HORIZ_INTERVAL     : 4.0000e-010        
HORIZ_OFFSET       : -2.00000000e-007   
PIXEL_OFFSET       : -2.14000000e-007   
VERTUNIT           : Unit Name = V
HORUNIT            : Unit Name = S
HORIZ_UNCERTAINTY  : 1.0000e-012        
TRIGGER_TIME       : Date = APR 17, 2024, Time = 19:29:28.611162721
ACQ_DURATION       : 9.9989e+000        
RECORD_TYPE        : single_sweep       
PROCESSING_DONE    : no_processing      
RESERVED5          : 0                  
RIS_SWEEPS         : 1                  
TIMEBASE           : 200_ns/div         
VERT_COUPLING      : DC_50_Ohms         
PROBE_ATT          : 1.0000e+000        
FIXED_VERT_GAIN    : 5_mV/div           
BANDWIDTH_LIMIT    : off                
VERTICAL_VERNIER   : 1.0000e+000        
ACQ_VERT_OFFSET    : 0.0000e+000        
WAVE_SOURCE        : UNKNOWN            
"
0.000561
0.000551
0.000561
0.000533
0.000514
0.000535
0.000538
0.000540
0.000551
0.000556
0.000548
0.000564
0.000543
0.000580
0.000593
0.000561
0.000556
0.000543
0.000556
0.000554
0.000540
0.000580
0.000575
0.000572
0.000567
0.000580
0.000567
0.000535
0.000588
0.000569
0.000569
0.000543
0.000535
0.000538
0.000559
0.000527
0.000540
0.000567
0.000548
0.000577
0.000585
0.000569
0.000522
0.000509
0.000554
0.000564
0.000546
0.000525
0.000540
0.000559
0.000556
0.000543
0.000577
0.000559
0.000580
0.000561
0.000567
0.000569
0.000546
0.000564
0.000564
0.000527
0.000491
0.000522
0.000540
0.000556
0.000564
0.000530
0.000575
0.000546
0.000546
0.000567
0.000525
0.000546
0.000556
0.000577
0.000588
0.000559
0.000590
0.000580
0.000596
0.000572
0.000575
0.000572
0.000519
0.000514
0.000475
0.000501
0.000527
0.000546
0.000582
0.000577
0.000596
0.000569
0.000556
0.000572
0.000538
0.000554
0.000585
0.000554
0.000543
0.000540
0.000493
0.000559
0.000540
0.000535
0.000564
0.000554
0.000585
0.000559
0.000530
0.000535
0.000530
0.000596
0.000564
0.000577
0.000546
0.000538
0.000561
0.000556
0.000561
0.000535
0.000569
0.000585
0.000561
0.000575
0.000559
0.000564
0.000548
0.000543
0.000559
0.000548
0.000554
0.000559
0.000496
0.000522
0.000504
0.000527
0.000512
0.000517
0.000543
0.000543
0.000540
0.000535
0.000593
0.000556
0.000551
0.000556
0.000598
0.000603
0.000590
0.000569
0.000564
0.000559
0.000559
0.000554
0.000543
0.000569
0.000577
0.000575
0.000556
0.000548
0.000519
0.000501
0.000559
0.000559
0.000533
0.000546
0.000540
0.000575
0.000554
0.000564
0.000551
0.000543
0.000543
0.000580
0.000569
0.000590
0.000551
0.000546
0.000504
0.000543
0.000551
0.000554
0.000533
0.000475
0.000488
0.000504
0.000543
0.000559
0.000530
0.000522
0.000559
0.000569
0.000567
0.000561
0.000543
0.000564
0.000572
0.000575
0.000598
0.000575
0.000530
0.000504
0.000483
0.000501
0.000543
0.000540
0.000596
0.000551
0.000572
0.000567
0.000580
0.000601
0.000580
0.000580
0.000577
0.000603
0.000598
0.000567
0.000582
0.000569
0.000582
0.000580
0.000567
0.000598
0.000580
0.000575
0.000575
0.000596
0.000569
0.000569
0.000527
0.000575
0.000564
0.000556
0.000564
0.000575
0.000580
0.000577
0.000569
0.000567
0.000575
0.000554
0.000522
0.000567
0.000564
0.000601
0.000538
0.000596
0.000556
0.000506
0.000554
0.000538
0.000564
0.000559
0.000556
0.000569
0.000582
0.000580
0.000590
0.000585
0.000569
0.000561
0.000567
0.000588
0.000556
0.000551
0.000464
0.000462
0.000488
0.000527
0.000540
0.000535
0.000569
0.000577
0.000575
0.000580
0.000609
0.000548
0.000561
0.000575
0.000590
0.000606
0.000580
0.000572
0.000567
0.000551
0.000551
0.000567
0.000577
0.000572
0.000559
0.000577
0.000575
0.000593
0.000577
0.000572
0.000561
0.000546
0.000506
0.000525
0.000551
0.000585
0.000556
0.000582
0.000585
0.000559
0.000554
0.000577
0.000546
0.000509
0.000538
0.000543
0.000580
0.000551
0.000538
0.000554
0.000535
0.000561
0.000585
0.000572
0.000582
0.000538
0.000585
0.000572
0.000572
0.000575
0.000556
0.000559
0.000556
0.000580
0.000582
0.000596
0.000564
0.000551
0.000533
0.000585
0.000564
0.000572
0.000606
0.000556
0.000543
0.000519
0.000517
0.000559
0.000551
0.000569
0.000580
0.000611
0.000596
0.000590
0.000577
0.000569
0.000543
0.000564
0.000585
0.000548
0.000559
0.000535
0.000491
0.000540
0.000538
0.000577
0.000522
0.000548
0.000556
0.000548
0.000561
0.000546
0.000569
0.000543
0.000590
0.000564
0.000551
0.000519
0.000533
0.000561
0.000530
0.000527
0.000527
0.000548
0.000548
0.000559
0.000567
0.000556
0.000538
0.000559
0.000577
0.000561
0.000561
0.000569
0.000575
0.000596
0.000554
0.000554
0.000585
0.000575
0.000548
0.000572
0.000564
0.000609
0.000572
0.000569
0.000556
0.000588
0.000535
0.000546
0.000519
0.000498
0.000533
0.000551
0.000535
0.000551
0.000567
0.000546
0.000575
0.000569
0.000569
0.000609
0.000609
0.000588
0.000540
0.000538
0.000519
0.000456
0.000404
0.000480
0.000496
0.000493
0.000564
0.000624
0.000614
0.000609
0.000624
0.000603
0.000575
0.000567
0.000548
0.000519
0.000496
0.000496
0.000517
0.000512
0.000506
0.000554
0.000561
0.000580
0.000614
0.000598
0.000638
0.000611
0.000585
0.000590
0.000567
0.000575
0.000548
0.000543
0.000527
0.000530
0.000567
0.000569
0.000603
0.000614
0.000556
0.000538
0.000496
0.000480
0.000470
0.000488
0.000530
0.000569
0.000569
0.000590
0.000590
0.000619
0.000669
0.000679
0.000695
0.000632
0.000533
0.000519
0.000446
0.000422
0.000438
0.000464
0.000483
0.000462
0.000488
0.000517
0.000540
0.000567
0.000638
0.000721
0.000761
0.000677
0.000614
0.000540
0.000498
0.000422
0.000354
0.000349
0.000270
0.000241
0.000296
0.000312
0.000462
0.000548
0.000682
0.000811
0.000821
0.000826
0.000816
0.000740
0.000679
0.000622
0.000540
0.000477
0.000365
0.000273
0.000233
0.000283
0.000433
0.000567
0.000622
0.000695
0.000729
0.000748
0.000721
0.000742
0.000735
0.000635
0.000551
0.000504
0.000433
0.000354
0.000320
0.000357
0.000428
0.000477
0.000554
0.000611
0.000630
0.000645
0.000669
0.000698
0.000737
0.000700
0.000601
0.000315
-0.000126
-0.000714
-0.001514
-0.002230
-0.003225
-0.004899
-0.007315
-0.009873
-0.012022
-0.014030
-0.015662
-0.016682
-0.018026
-0.019993
-0.021434
-0.021715
-0.021683
-0.022066
-0.021675
-0.020917
-0.021195
-0.021623
-0.021248
-0.021001
-0.021067
-0.020405
-0.019584
-0.018983
-0.018264
-0.017249
-0.017162
-0.018167
-0.018293
-0.017212
-0.016572
-0.017270
-0.017816
-0.017133
-0.016582
-0.016223
-0.015431
-0.014462
-0.014137
-0.013972
-0.013122
-0.012290
-0.012206
-0.012193
-0.011293
-0.010482
-0.010558
-0.010411
-0.009808
-0.009674
-0.010173
-0.010120
-0.009774
-0.009950
-0.010322
-0.009868
-0.008855
-0.008517
-0.008771
-0.008556
-0.007950
-0.007680
-0.007696
-0.008005
-0.008569
-0.008942
-0.008535
-0.007709
-0.007764
-0.008457
-0.008548
-0.008108
-0.007746
-0.007090
-0.006683
-0.006906
-0.006696
-0.005872
-0.005465
-0.005930
-0.006381
-0.006410
-0.006599
-0.006678
-0.006079
-0.005662
-0.006145
-0.006447
-0.006197
-0.006124
-0.006431
-0.006258
-0.005563
-0.005395
-0.005552
-0.005269
-0.004849
-0.004665
-0.004815
-0.005258
-0.005492
-0.005395
-0.005295
-0.005447
-0.005381
-0.005132
-0.005416
-0.005807
-0.005402
-0.004998
-0.005507
-0.005757
-0.005122
-0.004712
-0.004880
-0.004589
-0.003852
-0.003692
-0.004135
-0.004185
-0.003928
-0.003941
-0.004251
-0.004321
-0.004248
-0.004295
-0.004358
-0.004321
-0.004319
-0.004482
-0.004377
-0.003831
-0.003390
-0.003280
-0.003177
-0.003054
-0.003311
-0.003550
-0.003500
-0.003238
-0.003117
-0.003219
-0.003222
-0.003067
-0.002986
-0.003136
-0.003332
-0.003498
-0.003752
-0.003988
-0.004004
-0.003818
-0.003624
-0.003390
-0.003254
-0.003151
-0.003209
-0.003419
-0.003356
-0.003227
-0.003117
-0.002800
-0.002278
-0.001944
-0.001986
-0.002191
-0.002382
-0.002624
-0.002815
-0.002802
-0.002661
-0.002787
-0.003109
-0.003143
-0.002923
-0.002802
-0.002713
-0.002522
-0.002351
-0.002215
-0.002243
-0.002445
-0.002603
-0.002642
-0.002797
-0.002797
-0.002550
-0.002204
-0.002217
-0.002254
-0.002062
-0.001871
-0.001813
-0.001842
-0.001850
-0.002034
-0.002146
-0.001989
-0.001763
-0.001708
-0.001871
-0.002055
-0.002275
-0.002453
-0.002487
-0.002579
-0.002729
-0.002750
-0.002771
-0.002637
-0.002296
-0.001944
-0.001889
-0.002076
-0.002125
-0.002047
-0.002039
-0.001934
-0.001803
-0.001753
-0.001968
-0.002102
-0.002070
-0.001960
-0.001787
-0.001585
-0.001582
-0.001692
-0.001724
-0.001548
-0.001580
-0.001947
-0.002020
-0.001776
-0.001740
-0.001816
-0.001774
-0.001758
-0.001881
-0.001868
-0.001706
-0.001779
-0.002246
-0.002249
-0.002057
-0.002243
-0.002272
-0.001866
-0.001509
-0.001380
-0.001273
-0.001136
-0.001267
-0.001456
-0.001504
-0.001388
-0.001378
-0.001343
-0.001265
-0.001304
-0.001296
-0.001412
-0.001797
-0.001908
-0.001593
-0.001291
-0.001173
-0.001013
-0.000939
-0.001162
-0.001464
-0.001559
-0.001745
-0.002183
-0.002133
-0.001685
-0.001538
-0.001538
-0.001364
-0.001102
-0.001181
-0.001417
-0.001430
-0.001383
-0.001483
-0.001475
-0.001446
-0.001485
-0.001380
-0.001267
-0.001215
-0.001173
-0.001118
-0.001018
-0.001063
-0.001005
-0.000858
-0.000989
-0.001239
-0.001317
-0.001262
-0.001149
-0.000942
-0.000785
-0.000829
-0.000942
-0.000950
-0.000895
-0.001120
-0.001228
-0.001165
-0.001031
-0.000892
-0.000892
-0.000997
-0.001034
-0.001015
-0.000895
-0.000748
-0.000758
-0.000853
-0.000785
-0.000758
-0.001055
-0.001412
-0.001333
-0.001128
-0.001092
-0.000963
-0.000756
-0.000771
-0.000813
-0.000732
-0.000897
-0.001176
-0.001231
-0.001029
-0.000866
-0.001008
-0.001073
-0.001023
-0.001107
-0.001218
-0.001107
-0.000900
-0.000861
-0.000968
-0.001084
-0.001157
-0.001194
-0.001372
-0.001409
-0.001275
-0.001099
-0.001057
-0.001055
-0.000921
-0.000800
-0.000903
-0.000958
-0.000882
-0.000958
-0.001005
-0.000855
-0.000722
-0.000803
-0.000808
-0.000737
-0.000766
-0.000779
-0.000829
-0.000819
-0.000790
-0.000667
-0.000596
-0.000745
-0.000766
-0.000632
-0.000504
-0.000480
-0.000501
-0.000496
-0.000527
-0.000632
-0.000548
-0.000491
-0.000575
-0.000682
-0.000876
-0.001029
-0.000994
-0.000974
-0.001123
-0.001076
-0.000771
-0.000653
-0.000834
-0.000953
-0.000934
-0.000916
-0.000819
-0.000625
-0.000625
-0.000871
-0.001015
-0.000761
-0.000638
-0.000879
-0.001155
-0.001055
-0.000939
-0.001013
-0.001002
-0.000740
-0.000659
-0.000926
-0.001002
-0.000787
-0.000771
-0.000900
-0.000816
-0.000711
-0.000777
-0.000785
-0.000703
-0.000593
-0.000548
-0.000459
-0.000289
-0.000375
-0.000638
-0.000861
-0.000693
-0.000541
-0.000764
-0.000729
-0.000459
-0.000478
-0.000601
-0.000546
-0.000475
-0.000530
-0.000530
-0.000412
-0.000462
-0.000554
-0.000480
-0.000297
-0.000283
-0.000399
-0.000472
-0.000546
-0.000541
-0.000475
-0.000459
-0.000556
-0.000462
-0.000291
-0.000396
-0.000601
-0.000648
-0.000630
-0.000651
-0.000596
-0.000588
-0.000711
-0.000661
-0.000412
-0.000302
-0.000381
-0.000501
-0.000567
-0.000651
-0.000703
-0.000619
-0.000564
-0.000667
-0.000690
-0.000564
-0.000517
-0.000551
-0.000548
-0.000457
-0.000530
-0.000596
-0.000493
-0.000454
-0.000462
-0.000304
-0.000139
-0.000234
-0.000485
-0.000546
-0.000475
-0.000527
-0.000614
-0.000530
-0.000443
-0.000535
-0.000478
-0.000223
-0.000129
-0.000247
-0.000234
-0.000247
-0.000478
-0.000729
-0.000546
-0.000312
-0.000333
-0.000299
-0.000186
-0.000278
-0.000362
-0.000273
-0.000116
-0.000370
-0.000585
-0.000323
-0.000076
-0.000210
-0.000378
-0.000265
-0.000339
-0.000546
-0.000569
-0.000333
-0.000171
-0.000139
-0.000076
-0.000050
-0.000066
-0.000131
-0.000325
-0.000593
-0.000821
-0.000937
-0.000892
-0.000698
-0.000433
-0.000234
-0.000158
-0.000123
-0.000092
-0.000071
-0.000123
-0.000278
-0.000294
-0.000236
-0.000273
-0.000375
-0.000391
-0.000362
-0.000404
-0.000548
-0.000617
-0.000499
-0.000420
-0.000333
-0.000129
0.000024
-0.000026
-0.000231
-0.000144
-0.000089
-0.000407
-0.000588
-0.000475
-0.000462
-0.000478
-0.000367
-0.000297
-0.000312
-0.000281
-0.000081
0.000045
0.000037
-0.000021
-0.000039
-0.000247
-0.000506
-0.000577
-0.000472
-0.000386
-0.000404
-0.000270
-0.000089
-0.000042
-0.000060
-0.000108
-0.000234
-0.000485
-0.000580
-0.000517
-0.000535
-0.000514
-0.000409
-0.000331
-0.000331
-0.000286
-0.000226
-0.000276
-0.000283
-0.000165
-0.000134
-0.000270
-0.000367
-0.000147
-0.000063
-0.000171
-0.000291
-0.000415
-0.000525
-0.000506
-0.000318
-0.000110
-0.000171
-0.000276
-0.000176
-0.000089
-0.000116
-0.000152
-0.000244
-0.000459
-0.000706
-0.000782
-0.000630
-0.000402
-0.000360
-0.000488
-0.000543
-0.000399
-0.000336
-0.000318
-0.000160
-0.000171
-0.000268
-0.000257
-0.000181
-0.000215
-0.000323
-0.000381
-0.000381
-0.000278
-0.000163
0.000026
0.000013
-0.000108
-0.000144
-0.000150
-0.000325
-0.000436
-0.000278
-0.000215
-0.000194
-0.000192
-0.000189
-0.000205
-0.000312
-0.000234
-0.000171
-0.000181
-0.000181
-0.000076
-0.000039
-0.000194
-0.000331
-0.000362
-0.000257
-0.000029
0.000073
0.000003
-0.000024
-0.000147
-0.000168
-0.000092
-0.000074
-0.000129
-0.000291
-0.000381
-0.000331
-0.000354
-0.000375
-0.000273
-0.000202
-0.000268
-0.000273
-0.000186
-0.000100
-0.000074
-0.000137
-0.000234
-0.000304
-0.000207
-0.000139
-0.000089
-0.000034
-0.000063
-0.000134
-0.000155
-0.000021
0.000039
-0.000024
-0.000076
-0.000097
-0.000294
-0.000548
-0.000499
-0.000412
-0.000522
-0.000567
-0.000336
-0.000134
-0.000210
-0.000234
-0.000100
-0.000045
-0.000076
-0.000097
-0.000047
-0.000097
-0.000173
-0.000252
-0.000223
-0.000137
-0.000089
-0.000060
-0.000068
-0.000199
-0.000255
-0.000186
-0.000144
-0.000163
-0.000210
-0.000268
-0.000331
-0.000346
-0.000381
-0.000357
-0.000312
-0.000286
-0.000173
-0.000079
0.000034
0.000160
0.000241
0.000107
-0.000050
-0.000081
-0.000039
-0.000142
-0.000310
-0.000341
-0.000367
-0.000323
-0.000137
-0.000016
0.000034
0.000018
0.000058
0.000016
-0.000071
-0.000131
-0.000110
-0.000113
-0.000055
-0.000039
-0.000139
-0.000236
-0.000202
-0.000218
-0.000171
-0.000113
-0.000118
-0.000178
-0.000234
-0.000328
-0.000451
-0.000441
-0.000257
-0.000168
-0.000108
0.000010
0.000097
0.000008
-0.000053
-0.000013
-0.000068
-0.000239
-0.000349
-0.000328
-0.000231
-0.000268
-0.000336
-0.000344
-0.000299
-0.000294
-0.000333
-0.000506
-0.000541
-0.000276
-0.000102
-0.000165
-0.000189
-0.000142
-0.000116
-0.000186
-0.000063
0.000081
0.000089
0.000005
0.000100
0.000121
-0.000000
0.000008
0.000081
-0.000034
-0.000291
-0.000333
-0.000213
-0.000155
-0.000257
-0.000286
-0.000226
-0.000299
-0.000420
-0.000333
-0.000226
-0.000199
-0.000063
0.000184
0.000241
0.000149
0.000131
0.000197
0.000066
-0.000139
-0.000158
-0.000176
-0.000199
-0.000079
0.000089
0.000092
-0.000100
-0.000084
-0.000055
-0.000163
-0.000228
-0.000315
-0.000354
-0.000425
-0.000194
0.000068
0.000068
0.000068
0.000144
0.000039
-0.000116
-0.000066
0.000113
0.000118
0.000063
0.000097
0.000089
0.000039
0.000063
0.000186
0.000147
-0.000024
0.000029
0.000110
0.000052
-0.000066
-0.000092
-0.000110
-0.000134
-0.000113
-0.000018
-0.000039
-0.000110
-0.000192
-0.000178
-0.000087
-0.000047
0.000087
0.000128
0.000045
-0.000029
0.000121
0.000231
0.000063
-0.000129
-0.000071
0.000060
-0.000011
-0.000045
0.000071
0.000042
-0.000108
-0.000155
-0.000105
-0.000063
-0.000045
0.000024
0.000045
-0.000034
-0.000018
-0.000008
-0.000087
-0.000116
-0.000050
0.000134
0.000178
0.000066
0.000050
0.000076
0.000039
0.000100
0.000160
0.000016
-0.000129
-0.000026
0.000034
-0.000110
-0.000220
-0.000192
-0.000220
-0.000189
0.000013
0.000105
0.000031
-0.000055
-0.000081
-0.000081
-0.000087
-0.000074
-0.000016
0.000131
0.000223
0.000231
0.000254
0.000210
0.000126
-0.000011
-0.000045
0.000029
0.000026
-0.000005
-0.000008
0.000029
0.000110
0.000212
0.000281
0.000346
0.000268
0.000128
0.000016
-0.000000
-0.000037
-0.000144
-0.000121
0.000113
0.000247
0.000223
0.000247
0.000323
0.000152
-0.000278
-0.000472
-0.000294
-0.000265
-0.000234
-0.000139
-0.000032
0.000021
0.000115
0.000170
0.000260
0.000191
0.000039
0.000050
0.000024
-0.000024
-0.000000
-0.000039
-0.000210
-0.000220
-0.000139
-0.000095
-0.000060
0.000058
0.000063
-0.000102
-0.000176
-0.000084
-0.000003
-0.000053
-0.000076
-0.000071
-0.000100
-0.000087
-0.000037
0.000021
0.000131
0.000207
0.000168
0.000026
-0.000024
-0.000102
-0.000123
-0.000205
-0.000236
-0.000171
-0.000013
0.000136
0.000239
0.000228
0.000136
0.000149
0.000144
-0.000008
-0.000071
-0.000050
-0.000121
-0.000110
0.000034
0.000097
0.000071
0.000021
0.000034
0.000060
0.000092
0.000165
0.000294
0.000186
-0.000068
-0.000192
-0.000108
0.000018
-0.000102
-0.000207
-0.000058
0.000094
0.000134
0.000228
0.000315
0.000236
0.000163
0.000207
0.000265
0.000126
0.000008
-0.000045
-0.000081
-0.000186
-0.000131
0.000008
0.000058
0.000008
-0.000042
0.000042
0.000121
0.000134
0.000157
0.000184
0.000163
0.000076
0.000079
0.000136
0.000105
0.000097
0.000157
0.000241
0.000291
0.000328
0.000349
0.000362
0.000328
0.000215
0.000121
0.000202
0.000268
0.000176
0.000084
0.000026
-0.000047
-0.000105
-0.000016
0.000021
-0.000147
-0.000199
0.000008
0.000186
0.000178
0.000215
0.000331
0.000365
0.000341
0.000252
0.000118
-0.000118
-0.000260
-0.000252
-0.000081
0.000060
0.000121
0.000123
0.000055
0.000052
0.000113
0.000160
0.000052
-0.000058
0.000024
-0.000079
-0.000178
-0.000018
0.000052
-0.000050
-0.000029
0.000144
0.000189
0.000079
0.000047
0.000058
0.000052
-0.000013
0.000144
0.000176
0.000102
0.000071
0.000139
0.000100
-0.000034
-0.000021
0.000042
0.000026
-0.000021
0.000029
0.000084
0.000047
-0.000013
0.000031
-0.000029
-0.000032
0.000008
0.000063
0.000089
0.000113
0.000042
-0.000076
-0.000097
-0.000147
-0.000244
-0.000173
-0.000034
0.000092
0.000170
0.000189
0.000194
0.000194
0.000165
0.000092
0.000058
0.000173
0.000249
0.000042
-0.000037
0.000087
0.000139
0.000024
-0.000011
0.000034
0.000084
0.000170
0.000315
0.000325
0.000160
0.000142
0.000260
0.000273
0.000270
0.000336
0.000317
0.000165
0.000144
0.000160
-0.000016
-0.000197
-0.000102
0.000029
0.000034
0.000189
0.000370
0.000312
0.000265
0.000249
0.000302
0.000194
0.000005
-0.000066
-0.000121
-0.000257
-0.000241
-0.000160
-0.000108
-0.000121
-0.000092
-0.000113
-0.000068
0.000076
0.000170
0.000013
-0.000123
-0.000102
0.000010
0.000016
0.000029
0.000128
0.000100
0.000121
0.000189
0.000260
0.000155
0.000100
0.000212
0.000270
0.000100
-0.000102
-0.000131
-0.000105
-0.000110
-0.000097
-0.000005
0.000097
0.000076
0.000039
0.000084
0.000160
0.000165
0.000115
0.000081
0.000131
0.000113
0.000155
0.000283
0.000291
0.000215
0.000207
0.000283
0.000291
0.000212
0.000218
0.000289
0.000226
0.000071
0.000042
0.000055
-0.000068
-0.000084
-0.000047
-0.000029
-0.000066
-0.000039
0.000024
0.000110
0.000136
0.000184
0.000207
0.000247
0.000257
0.000268
0.000223
0.000184
0.000136
0.000142
0.000226
0.000265
0.000236
0.000210
0.000102
0.000024
0.000018
0.000024
0.000039
0.000123
0.000189
0.000050
-0.000129
-0.000173
-0.000037
0.000026
-0.000047
0.000005
0.000081
0.000107
0.000110
0.000205
0.000299
0.000231
0.000149
0.000181
0.000207
0.000215
0.000157
0.000050
0.000021
0.000102
0.000176
0.000218
0.000199
0.000197
0.000186
0.000110
0.000076
0.000073
0.000076
0.000118
0.000134
0.000113
-0.000005
-0.000081
-0.000039
0.000058
0.000094
0.000165
0.000275
0.000291
0.000220
0.000149
0.000084
0.000152
0.000181
0.000228
0.000257
0.000218
0.000241
0.000312
0.000370
0.000375
0.000252
0.000218
0.000223
0.000194
0.000165
0.000220
0.000212
0.000144
0.000202
0.000336
0.000401
0.000346
0.000320
0.000391
0.000404
0.000380
0.000341
0.000333
0.000317
0.000228
0.000168
0.000239
0.000336
0.000310
0.000325
0.000401
0.000404
0.000236
0.000081
0.000087
0.000079
0.000058
0.000152
0.000184
0.000128
0.000060
0.000039
0.000058
0.000089
0.000142
0.000191
0.000260
0.000197
0.000178
0.000291
0.000320
0.000176
0.000115
0.000184
0.000286
0.000254
0.000142
0.000021
-0.000158
-0.000289
-0.000236
-0.000068
0.000034
0.000068
0.000079
0.000079
0.000068
0.000123
0.000207
0.000191
0.000123
0.000100
0.000194
0.000273
0.000157
0.000039
0.000052
0.000139
0.000205
0.000155
0.000128
0.000121
0.000210
0.000291
0.000281
0.000223
0.000260
0.000233
0.000031
-0.000068
-0.000047
0.000071
0.000139
0.000144
0.000136
0.000197
0.000136
0.000071
0.000131
0.000163
0.000100
0.000163
0.000375
0.000454
0.000378
0.000231
0.000123
0.000052
0.000010
0.000068
0.000160
0.000194
0.000142
0.000139
0.000126
0.000050
0.000118
0.000205
0.000286
0.000291
0.000352
0.000396
0.000380
0.000365
0.000367
0.000241
0.000071
0.000018
0.000024
-0.000018
-0.000066
0.000052
0.000257
0.000278
0.000315
0.000341
0.000341
0.000249
0.000173
0.000275
0.000294
0.000155
0.000131
0.000215
0.000265
0.000210
0.000184
0.000168
0.000139
0.000239
0.000352
0.000354
0.000299
0.000142
0.000147
0.000173
0.000052
-0.000008
0.000071
0.000170
0.000207
0.000191
0.000299
0.000373
0.000268
0.000191
0.000325
0.000254
0.000073
0.000160
0.000341
0.000268
0.000199
0.000252
0.000260
0.000194
0.000220
0.000307
0.000241
0.000142
0.000210
0.000218
0.000220
0.000252
0.000283
0.000273
0.000226
0.000189
0.000197
0.000215
0.000218
0.000142
0.000097
0.000115
0.000142
0.000155
0.000212
0.000173
0.000081
0.000134
0.000254
0.000294
0.000325
0.000399
0.000338
0.000278
0.000241
0.000233
0.000212
0.000115
0.000076
0.000178
0.000197
0.000215
0.000296
0.000226
0.000102
0.000068
0.000170
0.000168
0.000039
0.000050
0.000152
0.000121
0.000060
0.000131
0.000212
0.000176
0.000226
0.000354
0.000317
0.000207
0.000102
0.000087
0.000076
0.000136
0.000223
0.000210
0.000123
0.000157
0.000205
0.000173
0.000163
0.000228
0.000142
-0.000113
-0.000105
0.000081
0.000210
0.000152
0.000173
0.000194
0.000155
0.000121
0.000236
0.000325
0.000283
0.000289
0.000320
0.000320
0.000299
0.000294
0.000307
0.000312
0.000291
0.000207
0.000134
0.000058
0.000068
0.000173
0.000231
0.000291
0.000404
0.000451
0.000391
0.000352
0.000289
0.000165
0.000147
0.000202
0.000202
0.000163
0.000247
0.000367
0.000359
0.000252
0.000147
0.000131
0.000097
0.000087
0.000197
0.000254
0.000257
0.000281
0.000349
0.000373
0.000378
0.000396
0.000401
0.000341
0.000265
0.000178
0.000168
0.000218
0.000286
0.000241
0.000170
0.000168
0.000047
-0.000060
0.000037
0.000107
0.000066
0.000102
0.000249
0.000310
0.000294
0.000344
0.000441
0.000396
0.000359
0.000323
0.000265
0.000126
0.000247
0.000341
0.000239
0.000134
0.000207
0.000186
0.000045
0.000052
0.000226
0.000212
0.000068
0.000123
0.000278
0.000113
0.000010
0.000186
0.000226
-0.000005
0.000105
0.000370
0.000422
0.000336
0.000441
0.000546
0.000475
0.000341
0.000380
0.000341
0.000160
0.000147
0.000299
0.000265
0.000218
0.000268
0.000275
0.000157
0.000079
0.000136
0.000197
0.000113
0.000107
0.000163
0.000278
0.000367
0.000396
0.000391
0.000328
0.000275
0.000312
0.000333
0.000383
0.000367
0.000346
0.000304
0.000310
0.000278
0.000212
0.000165
0.000155
0.000178
0.000315
0.000409
0.000375
0.000310
0.000241
0.000113
-0.000060
0.000008
0.000228
0.000275
0.000257
0.000331
0.000336
0.000247
0.000241
0.000278
0.000220
0.000186
0.000341
0.000407
0.000310
0.000176
0.000168
0.000186
0.000197
0.000236
0.000170
0.000152
0.000189
0.000268
0.000323
0.000323
0.000289
0.000312
0.000333
0.000291
0.000244
0.000189
0.000191
0.000194
0.000136
0.000205
0.000367
0.000407
0.000375
0.000325
0.000362
0.000317
0.000336
0.000380
0.000378
0.000375
0.000446
0.000475
0.000456
0.000454
0.000477
0.000373
0.000294
0.000304
0.000367
0.000341
0.000323
0.000331
0.000375
0.000349
0.000286
0.000228
0.000294
0.000212
0.000042
-0.000032
0.000097
0.000244
0.000210
0.000039
-0.000060
-0.000053
0.000052
0.000184
0.000155
0.000241
0.000341
0.000328
0.000257
0.000212
0.000126
0.000081
0.000215
0.000294
0.000223
0.000100
0.000118
0.000191
0.000270
0.000223
0.000226
0.000184
0.000094
0.000147
0.000286
0.000386
0.000459
0.000506
0.000498
0.000357
0.000294
0.000270
0.000226
0.000045
-0.000011
0.000060
0.000139
0.000268
0.000425
0.000417
0.000212
0.000087
0.000210
0.000396
0.000380
0.000304
0.000262
0.000239
0.000231
0.000231
0.000197
0.000121
0.000139
0.000184
0.000244
0.000210
0.000254
0.000359
0.000420
0.000362
0.000425
0.000417
0.000362
0.000270
0.000289
0.000262
0.000218
0.000215
0.000299
0.000378
0.000367
0.000365
0.000296
0.000273
0.000252
0.000283
0.000315
0.000323
0.000333
0.000354
0.000404
0.000417
0.000409
0.000352
0.000344
0.000281
0.000066
-0.000029
-0.000003
0.000016
0.000094
0.000205
0.000239
0.000244
0.000275
0.000341
0.000302
0.000134
0.000050
-0.000047
-0.000097
0.000029
0.000268
0.000336
0.000357
0.000425
0.000459
0.000393
0.000359
0.000412
0.000443
0.000352
0.000338
0.000325
0.000281
0.000257
0.000281
0.000341
0.000331
0.000236
0.000315
0.000383
0.000420
0.000378
0.000336
0.000312
0.000231
0.000165
0.000296
0.000294
0.000273
0.000357
0.000412
0.000341
0.000239
0.000239
0.000268
0.000270
0.000228
0.000273
0.000414
0.000462
0.000454
0.000509
0.000506
0.000459
0.000407
0.000404
0.000430
0.000412
0.000365
0.000349
0.000310
0.000278
0.000323
0.000331
0.000215
0.000160
0.000247
0.000289
0.000268
0.000325
0.000393
0.000310
0.000220
0.000215
0.000157
0.000123
0.000199
0.000249
0.000220
0.000231
0.000391
0.000341
0.000247
0.000218
0.000310
0.000338
0.000315
0.000367
0.000446
0.000451
0.000477
0.000501
0.000425
0.000323
0.000223
0.000134
0.000218
0.000317
0.000299
0.000231
0.000236
0.000275
0.000247
0.000218
0.000283
0.000317
0.000270
0.000223
0.000102
0.000081
0.000236
0.000307
0.000302
0.000344
0.000370
0.000386
0.000344
0.000325
0.000315
0.000194
0.000087
0.000071
0.000118
0.000223
0.000315
0.000344
0.000241
0.000199
0.000344
0.000454
0.000470
0.000483
0.000422
0.000317
0.000270
0.000354
0.000370
0.000191
0.000184
0.000315
0.000365
0.000325
0.000380
0.000451
0.000441
0.000380
0.000409
0.000414
0.000331
0.000289
0.000362
0.000291
0.000223
0.000310
0.000443
0.000370
0.000278
0.000331
0.000378
0.000367
0.000346
0.000315
0.000215
0.000244
0.000346
0.000378
0.000365
0.000362
0.000409
0.000367
0.000401
0.000386
0.000312
0.000310
0.000352
0.000349
0.000367
0.000414
0.000456
0.000359
0.000273
0.000210
0.000199
0.000228
0.000365
0.000393
0.000320
0.000383
0.000517
0.000475
0.000359
0.000352
0.000386
0.000362
0.000328
0.000359
0.000483
0.000454
0.000412
0.000425
0.000370
0.000310
0.000354
0.000365
0.000296
0.000186
0.000128
0.000155
0.000212
0.000265
0.000254
0.000191
0.000210
0.000202
0.000163
0.000170
0.000260
0.000357
0.000396
0.000449
0.000493
0.000491
0.000459
0.000425
0.000438
0.000331
0.000252
0.000210
0.000262
0.000268
0.000275
0.000359
0.000383
0.000354
0.000422
0.000388
0.000220
0.000168
0.000278
0.000359
0.000320
0.000430
0.000464
0.000341
0.000275
0.000365
0.000349
0.000262
0.000236
0.000244
0.000165
0.000123
0.000268
0.000425
0.000407
0.000341
0.000412
0.000441
0.000352
0.000273
0.000323
0.000349
0.000320
0.000365
0.000451
0.000435
0.000365
0.000380
0.000359
0.000239
0.000184
0.000244
0.000331
0.000275
0.000228
0.000265
0.000352
0.000310
0.000310
0.000281
0.000270
0.000205
0.000241
0.000268
0.000191
0.000123
0.000152
0.000262
0.000323
0.000310
0.000365
0.000388
0.000367
0.000310
0.000312
0.000328
0.000307
0.000323
0.000354
0.000268
0.000189
0.000268
0.000307
0.000275
0.000278
0.000393
0.000477
0.000365
0.000315
0.000310
0.000176
0.000107
0.000299
0.000417
0.000417
0.000435
0.000514
0.000514
0.000454
0.000480
0.000464
0.000404
0.000320
0.000239
0.000244
0.000307
0.000370
0.000428
0.000462
0.000480
0.000501
0.000527
0.000514
0.000391
0.000302
0.000239
0.000205
0.000186
0.000236
0.000317
0.000323
0.000286
0.000244
0.000262
0.000289
0.000336
0.000393
0.000425
0.000491
0.000483
0.000365
0.000373
0.000333
0.000268
0.000281
0.000323
0.000365
0.000299
0.000254
0.000291
0.000352
0.000349
0.000341
0.000380
0.000352
0.000317
0.000367
0.000383
0.000422
0.000333
0.000310
0.000365
0.000373
0.000362
0.000359
0.000299
0.000220
0.000165
0.000165
0.000236
0.000325
0.000294
0.000294
0.000315
0.000362
0.000383
0.000333
0.000304
0.000312
0.000315
0.000362
0.000370
0.000373
0.000349
0.000391
0.000391
0.000352
0.000328
0.000341
0.000346
0.000302
0.000359
0.000417
0.000422
0.000462
0.000414
0.000367
0.000323
0.000396
0.000422
0.000352
0.000302
0.000323
0.000294
0.000220
0.000257
0.000296
0.000310
0.000331
0.000443
0.000496
0.000464
0.000435
0.000362
0.000289
0.000210
0.000189
0.000170
0.000170
0.000212
0.000186
0.000226
0.000220
0.000302
0.000357
0.000396
0.000386
0.000289
0.000228
0.000236
0.000283
0.000257
0.000262
0.000152
0.000178
0.000223
0.000231
0.000244
0.000304
0.000352
0.000291
0.000328
0.000477
0.000498
0.000412
0.000370
0.000438
0.000435
0.000422
0.000317
0.000260
0.000262
0.000349
0.000331
0.000286
0.000349
0.000409
0.000341
0.000333
0.000365
0.000407
0.000388
0.000412
0.000472
0.000488
0.000396
0.000409
0.000404
0.000207
0.000107
0.000207
0.000341
0.000399
0.000404
0.000446
0.000475
0.000430
0.000477
0.000577
0.000556
0.000422
0.000443
0.000483
0.000454
0.000422
0.000414
0.000422
0.000404
0.000299
0.000149
-0.000003
0.000060
0.000257
0.000331
0.000359
0.000320
0.000289
0.000336
0.000399
0.000391
0.000346
0.000352
0.000365
0.000370
0.000378
0.000438
0.000441
0.000401
0.000338
0.000359
0.000365
0.000299
0.000286
0.000359
0.000365
0.000373
0.000378
0.000323
0.000320
0.000359
0.000438
0.000441
0.000414
0.000414
0.000378
0.000357
0.000399
0.000438
0.000396
0.000317
0.000362
0.000375
0.000373
0.000430
0.000417
0.000409
0.000359
0.000388
0.000443
0.000375
0.000328
0.000378
0.000396
0.000344
0.000367
0.000386
0.000393
0.000354
0.000268
0.000241
0.000299
0.000236
0.000228
0.000320
0.000417
0.000514
0.000546
0.000517
0.000464
0.000338
0.000283
0.000383
0.000412
0.000425
0.000475
0.000509
0.000435
0.000302
0.000275
0.000273
0.000281
0.000289
0.000349
0.000396
0.000477
0.000467
0.000456
0.000443
0.000488
0.000438
0.000312
0.000307
0.000380
0.000425
0.000357
0.000357
0.000414
0.000388
0.000317
0.000265
0.000283
0.000373
0.000344
0.000289
0.000294
0.000312
0.000283
0.000278
0.000359
0.000391
0.000278
0.000273
0.000380
0.000404
0.000396
0.000396
0.000467
0.000409
0.000283
0.000247
0.000307
0.000375
0.000425
0.000470
0.000449
0.000412
0.000354
0.000254
0.000228
0.000278
0.000312
0.000260
0.000328
0.000346
0.000307
0.000320
0.000299
0.000333
0.000275
0.000218
0.000281
0.000328
0.000396
0.000475
0.000559
0.000533
0.000401
0.000373
0.000383
0.000428
0.000449
0.000370
0.000346
0.000331
0.000323
0.000352
0.000438
0.000449
0.000407
0.000433
0.000509
0.000488
0.000451
0.000475
0.000501
0.000435
0.000299
0.000186
0.000226
0.000312
0.000396
0.000370
0.000344
0.000373
0.000375
0.000281
0.000249
0.000299
0.000373
0.000422
0.000472
0.000420
0.000420
0.000435
0.000435
0.000365
0.000354
0.000470
0.000504
0.000538
0.000522
0.000506
0.000483
0.000483
0.000535
0.000504
0.000472
0.000480
0.000501
0.000438
0.000325
0.000262
0.000336
0.000386
0.000409
0.000467
0.000533
0.000559
0.000504
0.000435
0.000420
0.000341
0.000262
0.000283
0.000283
0.000291
0.000349
0.000325
0.000262
0.000315
0.000354
0.000325
0.000260
0.000291
0.000430
0.000425
0.000454
0.000446
0.000407
0.000296
0.000252
0.000325
0.000349
0.000296
0.000239
0.000325
0.000365
0.000383
0.000393
0.000467
0.000498
0.000422
0.000362
0.000328
0.000352
0.000404
0.000359
0.000199
0.000100
0.000186
0.000328
0.000373
0.000401
0.000441
0.000420
0.000375
0.000401
0.000509
0.000475
0.000417
0.000506
0.000519
0.000483
0.000480
0.000501
0.000522
0.000472
0.000485
0.000517
0.000483
0.000441
0.000472
0.000451
0.000386
0.000430
0.000441
0.000430
0.000378
0.000378
0.000344
0.000291
0.000328
0.000399
0.000388
0.000349
0.000441
0.000533
0.000517
0.000467
0.000514
0.000477
0.000417
0.000443
0.000506
0.000470
0.000354
0.000304
0.000165
0.000123
0.000168
0.000173
0.000094
0.000071
0.000215
0.000296
0.000323
0.000462
0.000514
0.000462
0.000480
0.000477
0.000396
0.000236
0.000239
0.000354
0.000388
0.000409
0.000501
0.000533
0.000498
0.000493
0.000491
0.000428
0.000338
0.000380
0.000454
0.000357
0.000291
0.000354
0.000331
0.000205
0.000184
0.000310
0.000359
0.000302
0.000380
0.000509
0.000496
0.000425
0.000467
0.000459
0.000328
0.000228
0.000170
0.000186
0.000236
0.000289
0.000254
0.000257
0.000281
0.000417
0.000443
0.000438
0.000496
0.000451
0.000462
0.000483
0.000407
0.000346
0.000220
0.000220
0.000283
0.000294
0.000247
0.000317
0.000417
0.000420
0.000414
0.000393
0.000477
0.000493
0.000378
0.000386
0.000344
0.000247
0.000170
0.000207
0.000236
0.000273
0.000304
0.000422
0.000412
0.000367
0.000373
0.000396
0.000412
0.000412
0.000443
0.000380
0.000433
0.000425
0.000349
0.000312
0.000378
0.000483
0.000412
0.000370
0.000438
0.000446
0.000428
0.000428
0.000470
0.000435
0.000399
0.000435
0.000470
0.000551
0.000480
0.000430
0.000409
0.000299
0.000304
0.000317
0.000383
0.000441
0.000435
0.000430
0.000477
0.000467
0.000446
0.000472
0.000475
0.000456
0.000399
0.000446
0.000467
0.000422
0.000373
0.000420
0.000352
0.000307
0.000375
0.000454
0.000459
0.000456
0.000433
0.000414
0.000375
0.000420
0.000498
0.000430
0.000380
0.000449
0.000477
0.000428
0.000409
0.000344
0.000283
0.000283
0.000252
0.000260
0.000307
0.000349
0.000396
0.000464
0.000459
0.000396
0.000443
0.000412
0.000333
0.000278
0.000373
0.000451
0.000435
0.000456
0.000498
0.000446
0.000331
0.000386
0.000414
0.000367
0.000341
0.000378
0.000449
0.000485
0.000454
0.000441
0.000443
0.000438
0.000449
0.000409
0.000359
0.000428
0.000477
0.000446
0.000493
0.000509
0.000456
0.000409
0.000414
0.000451
0.000428
0.000383
0.000375
0.000425
0.000417
0.000451
0.000483
0.000527
0.000501
0.000449
0.000373
0.000320
0.000278
0.000205
0.000194
0.000310
0.000315
0.000249
0.000286
0.000357
0.000354
0.000275
0.000257
0.000320
0.000344
0.000412
0.000485
0.000535
0.000522
0.000454
0.000375
0.000401
0.000349
0.000357
0.000378
0.000362
0.000302
0.000236
0.000299
0.000414
0.000396
0.000338
0.000320
0.000359
0.000443
0.000485
0.000517
0.000483
0.000362
0.000346
0.000352
0.000312
0.000323
0.000349
0.000391
0.000422
0.000380
0.000354
0.000310
0.000281
0.000304
0.000352
0.000386
0.000338
0.000341
0.000378
0.000328
0.000281
0.000207
0.000223
0.000289
0.000380
0.000409
0.000443
0.000454
0.000491
0.000414
0.000299
0.000184
0.000149
0.000223
0.000336
0.000396
0.000409
0.000393
0.000443
0.000472
0.000446
0.000386
0.000373
0.000357
0.000344
0.000294
0.000286
0.000336
0.000399
0.000249
0.000210
0.000289
0.000257
0.000223
0.000310
0.000388
0.000404
0.000383
0.000391
0.000422
0.000414
0.000456
0.000441
0.000407
0.000435
0.000506
0.000512
0.000501
0.000556
0.000561
0.000525
0.000470
0.000493
0.000483
0.000370
0.000359
0.000430
0.000480
0.000485
0.000498
0.000498
0.000404
0.000383
0.000404
0.000443
0.000365
0.000331
0.000357
0.000388
0.000467
0.000491
0.000401
0.000357
0.000341
0.000359
0.000341
0.000346
0.000344
0.000283
0.000286
0.000357
0.000443
0.000428
0.000446
0.000467
0.000396
0.000386
0.000464
0.000509
0.000433
0.000449
0.000467
0.000459
0.000464
0.000493
0.000451
0.000378
0.000383
0.000491
0.000459
0.000373
0.000312
0.000289
0.000265
0.000270
0.000409
0.000456
0.000475
0.000548
0.000567
0.000564
0.000548
0.000517
0.000464
0.000430
0.000422
0.000428
0.000407
0.000493
0.000504
0.000401
0.000296
0.000344
0.000346
0.000383
0.000409
0.000375
0.000370
0.000407
0.000414
0.000441
0.000346
0.000286
0.000223
0.000181
0.000262
0.000352
0.000407
0.000456
0.000470
0.000409
0.000435
0.000438
0.000417
0.000430
0.000446
0.000435
0.000331
0.000312
0.000428
0.000365
0.000244
0.000346
0.000435
0.000310
0.000215
0.000383
0.000441
0.000291
0.000278
0.000399
0.000344
0.000320
0.000407
0.000459
0.000396
0.000396
0.000470
0.000414
0.000357
0.000441
0.000388
0.000310
0.000386
0.000470
0.000446
0.000359
0.000291
0.000299
0.000265
0.000260
0.000283
0.000346
0.000373
0.000420
0.000467
0.000517
0.000540
0.000504
0.000530
0.000564
0.000559
0.000572
0.000596
0.000577
0.000533
0.000514
0.000491
0.000514
0.000488
0.000401
0.000323
0.000352
0.000346
0.000380
0.000383
0.000441
0.000480
0.000470
0.000433
0.000420
0.000446
0.000420
0.000401
0.000388
0.000312
0.000291
0.000312
0.000362
0.000349
0.000344
0.000370
0.000365
0.000286
0.000268
0.000281
0.000239
0.000249
0.000349
0.000441
0.000420
0.000438
0.000464
0.000470
0.000475
0.000501
0.000512
0.000483
0.000451
0.000352
0.000268
0.000323
0.000443
0.000454
0.000336
0.000378
0.000449
0.000404
0.000446
0.000535
0.000567
0.000496
0.000493
0.000548
0.000527
0.000456
0.000509
0.000533
0.000443
0.000352
0.000365
0.000454
0.000514
0.000496
0.000522
0.000504
0.000475
0.000449
0.000483
0.000441
0.000365
0.000359
0.000386
0.000331
0.000349
0.000464
0.000517
0.000491
0.000496
0.000577
0.000554
0.000512
0.000556
0.000525
0.000467
0.000454
0.000504
0.000443
0.000383
0.000391
0.000373
0.000341
0.000367
0.000399
0.000433
0.000443
0.000488
0.000506
0.000454
0.000357
0.000354
0.000417
0.000451
0.000456
0.000472
0.000501
0.000454
0.000352
0.000289
0.000315
0.000315
0.000336
0.000435
0.000538
0.000477
0.000454
0.000491
0.000519
0.000519
0.000467
0.000467
0.000393
0.000391
0.000454
0.000459
0.000414
0.000428
0.000435
0.000425
0.000417
0.000430
0.000451
0.000443
0.000483
0.000472
0.000393
0.000362
0.000336
0.000257
0.000296
0.000307
0.000352
0.000438
0.000425
0.000451
0.000446
0.000412
0.000346
0.000375
0.000428
0.000428
0.000388
0.000278
0.000191
0.000186
0.000231
0.000278
0.000325
0.000454
0.000491
0.000498
0.000498
0.000588
0.000561
0.000506
0.000517
0.000567
0.000540
0.000483
0.000449
0.000428
0.000412
0.000446
0.000470
0.000449
0.000462
0.000438
0.000407
0.000428
0.000456
0.000456
0.000456
0.000496
0.000477
0.000422
0.000459
0.000472
0.000446
0.000414
0.000412
0.000443
0.000449
0.000506
0.000501
0.000420
0.000399
0.000428
0.000454
0.000433
0.000417
0.000472
0.000467
0.000475
0.000514
0.000514
0.000412
0.000333
0.000354
0.000354
0.000310
0.000323
0.000422
0.000464
0.000362
0.000312
0.000333
0.000373
0.000304
0.000289
0.000296
0.000349
0.000388
0.000504
0.000559
0.000543
0.000512
0.000501
0.000519
0.000446
0.000373
0.000370
0.000346
0.000323
0.000375
0.000417
0.000354
0.000359
0.000414
0.000409
0.000404
0.000459
0.000462
0.000417
0.000349
0.000320
0.000275
0.000281
0.000346
0.000417
0.000391
0.000331
0.000365
0.000422
0.000414
0.000422
0.000475
0.000525
0.000506
0.000433
0.000454
0.000456
0.000420
0.000459
0.000483
0.000441
0.000362
0.000362
0.000349
0.000354
0.000412
0.000404
0.000378
0.000409
0.000449
0.000401
0.000346
0.000391
0.000451
0.000425
0.000412
0.000506
0.000475
0.000467
0.000501
0.000506
0.000435
0.000391
0.000370
0.000414
0.000454
0.000472
0.000480
0.000498
0.000559
0.000535
0.000435
0.000470
0.000470
0.000396
0.000338
0.000404
0.000386
0.000278
0.000233
0.000260
0.000346
0.000349
0.000380
0.000433
0.000456
0.000407
0.000451
0.000496
0.000504
0.000433
0.000370
0.000388
0.000383
0.000354
0.000365
0.000407
0.000428
0.000435
0.000480
0.000501
0.000493
0.000527
0.000522
0.000483
0.000501
0.000496
0.000441
0.000359
0.000373
0.000454
0.000488
0.000449
0.000396
0.000367
0.000373
0.000425
0.000443
0.000425
0.000441
0.000485
0.000488
0.000470
0.000454
0.000517
0.000498
0.000485
0.000475
0.000467
0.000459
0.000435
0.000451
0.000477
0.000506
0.000517
0.000530
0.000538
0.000464
0.000393
0.000383
0.000401
0.000378
0.000430
0.000506
0.000527
0.000517
0.000546
0.000517
0.000504
0.000475
0.000509
0.000509
0.000480
0.000472
0.000543
0.000533
0.000517
0.000538
0.000546
0.000357
0.000262
0.000354
0.000396
0.000341
0.000336
0.000480
0.000546
0.000480
0.000504
0.000475
0.000412
0.000354
0.000433
0.000459
0.000388
0.000412
0.000470
0.000464
0.000470
0.000496
0.000533
0.000496
0.000538
0.000462
0.000396
0.000333
0.000317
0.000328
0.000346
0.000422
0.000485
0.000435
0.000433
0.000501
0.000501
0.000435
0.000441
0.000509
0.000543
0.000548
0.000525
0.000485
0.000449
0.000407
0.000451
0.000514
0.000517
0.000509
0.000425
0.000430
0.000443
0.000485
0.000530
0.000493
0.000530
0.000475
0.000438
0.000525
0.000533
0.000493
0.000464
0.000525
0.000467
0.000354
0.000354
0.000383
0.000435
0.000422
0.000467
0.000519
0.000498
0.000498
0.000530
0.000530
0.000498
0.000509
0.000554
0.000462
0.000446
0.000496
0.000491
0.000483
0.000483
0.000459
0.000412
0.000493
0.000512
0.000441
0.000391
0.000425
0.000467
0.000409
0.000446
0.000504
0.000543
0.000480
0.000446
0.000480
0.000512
0.000527
0.000538
0.000493
0.000464
0.000417
0.000409
0.000414
0.000428
0.000420
0.000449
0.000506
0.000522
0.000472
0.000435
0.000485
0.000554
0.000540
0.000488
0.000467
0.000530
0.000514
0.000493
0.000512
0.000514
0.000504
0.000480
0.000475
0.000470
0.000422
0.000493
0.000501
0.000420
0.000362
0.000333
0.000312
0.000273
0.000315
0.000359
0.000344
0.000443
0.000548
0.000569
0.000561
0.000611
0.000580
0.000527
0.000459
0.000443
0.000422
0.000420
0.000496
0.000485
0.000420
0.000409
0.000483
0.000514
0.000491
0.000470
0.000373
0.000352
0.000396
0.000414
0.000378
0.000454
0.000438
0.000357
0.000338
0.000430
0.000454
0.000480
0.000477
0.000564
0.000538
0.000488
0.000496
0.000430
0.000354
0.000346
0.000352
0.000373
0.000433
0.000443
0.000430
0.000383
0.000393
0.000462
0.000477
0.000498
0.000527
0.000498
0.000422
0.000441
0.000485
0.000480
0.000464
0.000485
0.000491
0.000475
0.000477
0.000501
0.000517
0.000496
0.000475
0.000509
0.000456
0.000352
0.000338
0.000378
0.000393
0.000443
0.000475
0.000509
0.000491
0.000493
0.000504
0.000519
0.000472
0.000443
0.000467
0.000425
0.000425
0.000483
0.000467
0.000359
0.000260
0.000239
0.000252
0.000338
0.000417
0.000459
0.000446
0.000414
0.000512
0.000530
0.000551
0.000501
0.000451
0.000441
0.000451
0.000477
0.000480
0.000446
0.000472
0.000462
0.000414
0.000407
0.000435
0.000438
0.000456
0.000525
0.000559
0.000527
0.000449
0.000399
0.000401
0.000396
0.000346
0.000362
0.000422
0.000456
0.000454
0.000496
0.000456
0.000396
0.000386
0.000422
0.000488
0.000407
0.000357
0.000373
0.000341
0.000336
0.000401
0.000357
0.000302
0.000375
0.000391
0.000401
0.000480
0.000567
0.000538
0.000470
0.000459
0.000509
0.000501
0.000443
0.000470
0.000441
0.000354
0.000383
0.000446
0.000441
0.000399
0.000425
0.000498
0.000522
0.000514
0.000506
0.000449
0.000317
0.000378
0.000477
0.000446
0.000462
0.000438
0.000456
0.000462
0.000422
0.000438
0.000404
0.000391
0.000425
0.000449
0.000464
0.000491
0.000491
0.000498
0.000512
0.000522
0.000504
0.000464
0.000504
0.000514
0.000498
0.000438
0.000438
0.000451
0.000446
0.000454
0.000449
0.000425
0.000428
0.000488
0.000475
0.000443
0.000456
0.000399
0.000375
0.000341
0.000412
0.000456
0.000404
0.000404
0.000467
0.000417
0.000383
0.000417
0.000496
0.000488
0.000407
0.000464
0.000383
0.000273
0.000278
0.000325
0.000291
0.000352
0.000459
0.000509
0.000506
0.000533
0.000551
0.000488
0.000393
0.000407
0.000475
0.000477
0.000517
0.000530
0.000527
0.000525
0.000517
0.000496
0.000504
0.000496
0.000483
0.000527
0.000483
0.000441
0.000383
0.000393
0.000386
0.000341
0.000407
0.000407
0.000412
0.000435
0.000512
0.000554
0.000514
0.000585
0.000630
0.000588
0.000538
0.000538
0.000559
0.000522
0.000485
0.000501
0.000501
0.000456
0.000475
0.000435
0.000346
0.000359
0.000414
0.000433
0.000370
0.000399
0.000504
0.000446
0.000388
0.000425
0.000491
0.000451
0.000323
0.000428
0.000462
0.000451
0.000386
0.000409
0.000475
0.000467
0.000454
0.000543
0.000580
0.000527
0.000527
0.000517
0.000525
0.000514
0.000475
0.000517
0.000533
0.000548
0.000590
0.000543
0.000540
0.000540
0.000530
0.000496
0.000517
0.000538
0.000546
0.000454
0.000396
0.000414
0.000409
0.000396
0.000401
0.000480
0.000467
0.000470
0.000501
0.000533
0.000501
0.000459
0.000446
0.000459
0.000475
0.000438
0.000435
0.000480
0.000533
0.000514
0.000559
0.000540
0.000509
0.000433
0.000498
0.000498
0.000483
0.000512
0.000454
0.000443
0.000383
0.000401
0.000467
0.000517
0.000491
0.000496
0.000443
0.000380
0.000391
0.000396
0.000443
0.000428
0.000470
0.000472
0.000491
0.000506
0.000472
0.000425
0.000412
0.000464
0.000506
0.000451
0.000417
0.000388
0.000391
0.000407
0.000383
0.000407
0.000433
0.000454
0.000430
0.000409
0.000449
0.000435
0.000420
0.000430
0.000425
0.000354
0.000378
0.000417
0.000443
0.000464
0.000477
0.000514
0.000501
0.000477
0.000496
0.000496
0.000475
0.000472
0.000493
0.000488
0.000441
0.000456
0.000472
0.000404
0.000378
0.000425
0.000451
0.000451
0.000459
0.000501
0.000477
0.000433
0.000441
0.000493
0.000517
0.000428
0.000414
0.000441
0.000401
0.000338
0.000380
0.000378
0.000357
0.000333
0.000396
0.000462
0.000509
0.000540
0.000509
0.000459
0.000386
0.000367
0.000396
0.000459
0.000425
0.000317
0.000283
0.000357
0.000475
0.000498
0.000488
0.000517
0.000504
0.000477
0.000446
0.000401
0.000383
0.000388
0.000454
0.000430
0.000472
0.000514
0.000517
0.000485
0.000359
0.000420
0.000512
0.000464
0.000462
0.000488
0.000519
0.000514
0.000509
0.000491
0.000475
0.000480
0.000480
0.000498
0.000485
0.000472
0.000483
0.000496
0.000509
0.000491
0.000498
0.000498
0.000504
0.000475
0.000467
0.000464
0.000509
0.000480
0.000407
0.000370
0.000438
0.000459
0.000459
0.000498
0.000496
0.000514
0.000551
0.000559
0.000540
0.000477
0.000467
0.000517
0.000519
0.000488
0.000459
0.000438
0.000396
0.000401
0.000417
0.000470
0.000420
0.000380
0.000333
0.000296
0.000320
0.000435
0.000464
0.000433
0.000433
0.000477
0.000475
0.000485
0.000488
0.000488
0.000464
0.000446
0.000464
0.000470
0.000467
0.000449
0.000483
0.000498
0.000519
0.000533
0.000580
0.000512
0.000386
0.000365
0.000435
0.000519
0.000488
0.000480
0.000472
0.000446
0.000449
0.000496
0.000485
0.000420
0.000428
0.000438
0.000483
0.000451
0.000475
0.000477
0.000396
0.000430
0.000509
0.000543
0.000525
0.000561
0.000590
0.000538
0.000559
0.000624
0.000614
0.000522
0.000501
0.000433
0.000375
0.000320
0.000302
0.000344
0.000357
0.000441
0.000506
0.000459
0.000464
0.000438
0.000435
0.000454
0.000380
0.000310
0.000299
0.000352
0.000438
0.000485
0.000475
0.000535
0.000556
0.000519
0.000577
0.000577
0.000540
0.000438
0.000380
0.000370
0.000409
0.000443
0.000493
0.000454
0.000428
0.000454
0.000477
0.000548
0.000530
0.000519
0.000551
0.000527
0.000501
0.000525
0.000509
0.000498
0.000530
0.000491
0.000483
0.000435
0.000420
0.000422
0.000422
0.000315
0.000273
0.000336
0.000391
0.000367
0.000425
0.000522
0.000540
0.000501
0.000525
0.000504
0.000472
0.000443
0.000441
0.000373
0.000338
0.000430
0.000464
0.000425
0.000467
0.000501
0.000504
0.000530
0.000546
0.000577
0.000538
0.000509
0.000533
0.000467
0.000380
0.000412
0.000506
0.000491
0.000438
0.000373
0.000307
0.000315
0.000299
0.000359
0.000407
0.000498
0.000548
0.000556
0.000543
0.000475
0.000491
0.000472
0.000483
0.000477
0.000435
0.000456
0.000451
0.000493
0.000438
0.000443
0.000396
0.000346
0.000283
0.000296
0.000338
0.000383
0.000391
0.000435
0.000506
0.000535
0.000530
0.000522
0.000514
0.000491
0.000425
0.000504
0.000554
0.000538
0.000512
0.000493
0.000454
0.000386
0.000367
0.000401
0.000485
0.000527
0.000548
0.000590
0.000514
0.000417
0.000451
0.000433
0.000386
0.000414
0.000527
0.000512
0.000462
0.000501
0.000540
0.000491
0.000467
0.000456
0.000370
0.000273
0.000425
0.000527
0.000525
0.000464
0.000514
0.000454
0.000341
0.000323
0.000435
0.000464
0.000464
0.000509
0.000540
0.000501
0.000485
0.000459
0.000433
0.000323
0.000315
0.000386
0.000438
0.000477
0.000561
0.000559
0.000514
0.000496
0.000477
0.000522
0.000449
0.000380
0.000401
0.000430
0.000464
0.000480
0.000475
0.000475
0.000467
0.000504
0.000569
0.000551
0.000564
0.000569
0.000572
0.000522
0.000420
